# scan = 338
# date = 11/11/2003
# time = 9:33:53 AM
# experiment = TbPtIn single crystal;  100 plane
# experiment_number = 41
# command = scan h 0.3 2.07 .005 k 0.3 2.07 .005 l 0 preset 6
# builtin_command = scan h 0.3 2.07 .005 k 0.3 2.07 .005 l 0 preset 6
# users = O.Garlea, C.Stassis, J.L.Zarestky
# local_contact = J.L.Zarestky
# scan_title = hh0 scan, base temp, H = 3 T
# monochromator = PG002
# analyzer = Pg002
# sense = +-+
# collimation = 48-40-40-102
# samplename = TbPtIn
# sampletype = crystal
# samplemosaic = 30.000000
# latticeconstants = 7.554053,7.554053,3.846679,90.000000,90.000000,120.000000
# ubmatrix = -0.005362,-0.005623,0.259740,-0.129577,-0.134798,-0.010795,0.080912,-0.071857,-0.000073
# mode = 0
# plane_normal = 0.001702,0.034158,0.999415
# ubconf = C:\User\exp41\UBConf\UB10Nov2003_64050PM.ini
# preset_type = normal 
# preset_channel = mcu
# preset_value = 6.000000
# def_x = h
# def_y = detector
# col_headers = 
#   Pt.          h          k          l       time   detector    monitor        mcu         m2         s1         s2        sgl        sgu        stl        stu         a1         a2          q         ei         ef          e       temp    coldtip    tsample
      1     0.3000     0.3001     0.0000      5.555     25.000  22200.000      6.000    41.2537    86.9715   -10.7755    -0.0975     1.9545     1.0050    -3.9990    20.6267    41.2566     0.4991    14.6405    14.6385     0.0020   295.0000     4.2214     4.172
      2     0.3049     0.3049     0.0000      5.593     30.000  22200.000      6.000    41.2537    86.8819   -10.9497    -0.0975     1.9545     1.0050    -3.9990    20.6267    41.2566     0.5072    14.6405    14.6385     0.0020   295.0000     4.2218     4.174
      3     0.3100     0.3101     0.0000      5.514     35.000  22200.000      6.000    41.2537    86.7923   -11.1347    -0.0975     1.9545     1.0050    -3.9990    20.6267    41.2566     0.5157    14.6405    14.6385     0.0020   295.0000     4.2218     4.174
      4     0.3149     0.3150     0.0000      5.517     32.000  22200.000      6.000    41.2537    86.7028   -11.3129    -0.0975     1.9545     1.0050    -3.9990    20.6267    41.2566     0.5240    14.6405    14.6385     0.0020   295.0000     4.2218     4.174
      5     0.3199     0.3200     0.0000      5.493     20.000  22200.000      6.000    41.2537    86.6112   -11.4930    -0.0975     1.9545     1.0050    -3.9990    20.6267    41.2566     0.5323    14.6405    14.6385     0.0020   295.0000     4.2205     4.181
      6     0.3250     0.3250     0.0000      5.541     36.000  22200.000      6.000    41.2537    86.5207   -11.6751    -0.0975     1.9545     1.0050    -3.9990    20.6267    41.2566     0.5407    14.6405    14.6385     0.0020   295.0000     4.2230     4.173
      7     0.3299     0.3300     0.0000      5.537     29.000  22200.000      6.000    41.2537    86.4321   -11.8532    -0.0975     1.9545     1.0050    -3.9990    20.6267    41.2566     0.5489    14.6405    14.6385     0.0020   295.0000     4.2204     4.175
      8     0.3350     0.3350     0.0000      5.578     19.000  22200.000      6.000    41.2537    86.3415   -12.0343    -0.0975     1.9545     1.0050    -3.9990    20.6267    41.2566     0.5573    14.6405    14.6385     0.0020   295.0000     4.2204     4.175
      9     0.3400     0.3400    -0.0000      5.568     28.000  22200.000      6.000    41.2537    86.2539   -12.2154    -0.0975     1.9545     1.0050    -3.9990    20.6267    41.2566     0.5656    14.6405    14.6385     0.0020   295.0000     4.2212     4.169
     10     0.3449     0.3450     0.0000      5.595     21.000  22200.000      6.000    41.2537    86.1634   -12.3946    -0.0975     1.9545     1.0050    -3.9990    20.6267    41.2566     0.5739    14.6405    14.6385     0.0020   295.0000     4.2244     4.176
     11     0.3500     0.3501    -0.0000      5.573     25.000  22200.000      6.000    41.2537    86.0738   -12.5767    -0.0975     1.9545     1.0050    -3.9990    20.6267    41.2566     0.5823    14.6405    14.6385     0.0020   295.0000     4.2218     4.175
     12     0.3550     0.3550     0.0000      5.557     23.000  22200.000      6.000    41.2537    85.9823   -12.7568    -0.0975     1.9545     1.0050    -3.9990    20.6267    41.2566     0.5906    14.6405    14.6385     0.0020   295.0000     4.2218     4.175
     13     0.3599     0.3600     0.0000      5.506     27.000  22200.000      6.000    41.2537    85.8937   -12.9349    -0.0975     1.9545     1.0050    -3.9990    20.6267    41.2566     0.5988    14.6405    14.6385     0.0020   295.0000     4.2244     4.175
     14     0.3649     0.3650     0.0000      5.566     34.000  22200.000      6.000    41.2537    85.8031   -13.1160    -0.0975     1.9545     1.0050    -3.9990    20.6267    41.2566     0.6071    14.6405    14.6385     0.0020   295.0000     4.2209     4.172
     15     0.3700     0.3700     0.0000      5.551     19.000  22200.000      6.000    41.2537    85.7126   -13.2981    -0.0975     1.9545     1.0050    -3.9990    20.6267    41.2566     0.6155    14.6405    14.6385     0.0020   295.0000     4.2224     4.173
     16     0.3749     0.3750     0.0000      5.583     19.000  22200.000      6.000    41.2537    85.6220   -13.4772    -0.0975     1.9545     1.0050    -3.9990    20.6267    41.2566     0.6238    14.6405    14.6385     0.0020   295.0000     4.2224     4.173
     17     0.3800     0.3801     0.0000      5.534     25.000  22200.000      6.000    41.2537    85.5315   -13.6603    -0.0975     1.9545     1.0050    -3.9990    20.6267    41.2566     0.6322    14.6405    14.6385     0.0020   295.0000     4.2300     4.164
     18     0.3849     0.3850     0.0000      5.559     21.000  22200.000      6.000    41.2537    85.4419   -13.8385    -0.0975     1.9545     1.0050    -3.9990    20.6267    41.2566     0.6404    14.6405    14.6385     0.0020   295.0000     4.2207     4.175
     19     0.3900     0.3900     0.0000      5.559     18.000  22200.000      6.000    41.2537    85.3524   -14.0196    -0.0975     1.9545     1.0050    -3.9990    20.6267    41.2566     0.6488    14.6405    14.6385     0.0020   295.0000     4.2211     4.174
     20     0.3950     0.3950     0.0000      5.559     18.000  22200.000      6.000    41.2537    85.2608   -14.2007    -0.0975     1.9545     1.0050    -3.9990    20.6267    41.2566     0.6571    14.6405    14.6385     0.0020   295.0000     4.2211     4.174
     21     0.3999     0.4000     0.0000      5.609     15.000  22200.000      6.000    41.2537    85.1732   -14.3798    -0.0975     1.9545     1.0050    -3.9990    20.6267    41.2566     0.6653    14.6405    14.6385     0.0020   295.0000     4.2204     4.174
     22     0.4049     0.4050     0.0000      5.485     20.000  22200.000      6.000    41.2537    85.0817   -14.5609    -0.0975     1.9545     1.0050    -3.9990    20.6267    41.2566     0.6737    14.6405    14.6385     0.0020   295.0000     4.2227     4.171
     23     0.4100     0.4101    -0.0000      5.561     25.000  22200.000      6.000    41.2537    84.9931   -14.7450    -0.0975     1.9545     1.0050    -3.9990    20.6267    41.2566     0.6821    14.6405    14.6385     0.0020   295.0000     4.2190     4.173
     24     0.4149     0.4150     0.0000      5.554     13.000  22200.000      6.000    41.2537    84.9016   -14.9221    -0.0975     1.9545     1.0050    -3.9990    20.6267    41.2566     0.6903    14.6405    14.6385     0.0020   295.0000     4.2190     4.173
     25     0.4200     0.4200     0.0000      5.553     20.000  22200.000      6.000    41.2537    84.8120   -15.1042    -0.0975     1.9545     1.0050    -3.9990    20.6267    41.2566     0.6987    14.6405    14.6385     0.0020   295.0000     4.2238     4.169
     26     0.4250     0.4250    -0.0000      5.566     16.000  22200.000      6.000    41.2537    84.7224   -15.2853    -0.0975     1.9545     1.0050    -3.9990    20.6267    41.2566     0.7070    14.6405    14.6385     0.0020   295.0000     4.2225     4.174
     27     0.4299     0.4300     0.0000      5.509     19.000  22200.000      6.000    41.2537    84.6309   -15.4654    -0.0975     1.9545     1.0050    -3.9990    20.6267    41.2566     0.7153    14.6405    14.6385     0.0020   295.0000     4.2206     4.173
     28     0.4350     0.4350     0.0000      5.544     14.000  22200.000      6.000    41.2537    84.5413   -15.6475    -0.0975     1.9545     1.0050    -3.9990    20.6267    41.2566     0.7236    14.6405    14.6385     0.0020   295.0000     4.2206     4.173
     29     0.4399     0.4400     0.0000      5.628     20.000  22200.000      6.000    41.2537    84.4498   -15.8276    -0.0975     1.9545     1.0050    -3.9990    20.6267    41.2566     0.7319    14.6405    14.6385     0.0020   295.0000     4.2271     4.184
     30     0.4449     0.4450     0.0000      5.539     18.000  22200.000      6.000    41.2537    84.3602   -16.0087    -0.0975     1.9545     1.0050    -3.9990    20.6267    41.2566     0.7402    14.6405    14.6385     0.0020   295.0000     4.2222     4.172
     31     0.4500     0.4501     0.0000      5.605     16.000  22200.000      6.000    41.2537    84.2687   -16.1928    -0.0975     1.9545     1.0050    -3.9990    20.6267    41.2566     0.7487    14.6405    14.6385     0.0020   295.0000     4.2239     4.174
     32     0.4549     0.4550     0.0000      5.543     17.000  22200.000      6.000    41.2537    84.1801   -16.3709    -0.0975     1.9545     1.0050    -3.9990    20.6267    41.2566     0.7569    14.6405    14.6385     0.0020   295.0000     4.2239     4.174
     33     0.4599     0.4600     0.0000      5.580     13.000  22200.000      6.000    41.2537    84.0876   -16.5520    -0.0975     1.9545     1.0050    -3.9990    20.6267    41.2566     0.7652    14.6405    14.6385     0.0020   295.0000     4.2186     4.168
     34     0.4650     0.4651     0.0000      5.578     18.000  22200.000      6.000    41.2537    83.9980   -16.7341    -0.0975     1.9545     1.0050    -3.9990    20.6267    41.2566     0.7736    14.6405    14.6385     0.0020   295.0000     4.2199     4.176
     35     0.4699     0.4700     0.0000      5.580     19.000  22200.000      6.000    41.2537    83.9075   -16.9143    -0.0975     1.9545     1.0050    -3.9990    20.6267    41.2566     0.7818    14.6405    14.6385     0.0020   295.0000     4.2204     4.172
     36     0.4749     0.4750     0.0000      5.546     19.000  22200.000      6.000    41.2537    83.8179   -17.0954    -0.0975     1.9545     1.0050    -3.9990    20.6267    41.2566     0.7901    14.6405    14.6385     0.0020   295.0000     4.2204     4.172
     37     0.4799     0.4800     0.0000      5.582     18.000  22200.000      6.000    41.2537    83.7264   -17.2774    -0.0975     1.9545     1.0050    -3.9990    20.6267    41.2566     0.7985    14.6405    14.6385     0.0020   295.0000     4.2261     4.171
     38     0.4849     0.4850     0.0000      5.538     11.000  22200.000      6.000    41.2537    83.6358   -17.4585    -0.0975     1.9545     1.0050    -3.9990    20.6267    41.2566     0.8068    14.6405    14.6385     0.0020   295.0000     4.2218     4.176
     39     0.4900     0.4900     0.0000      5.572     22.000  22200.000      6.000    41.2537    83.5443   -17.6406    -0.0975     1.9545     1.0050    -3.9990    20.6267    41.2566     0.8151    14.6405    14.6385     0.0020   295.0000     4.2183     4.172
     40     0.4949     0.4950     0.0000      5.562     19.000  22200.000      6.000    41.2537    83.4557   -17.8217    -0.0975     1.9545     1.0050    -3.9990    20.6267    41.2566     0.8234    14.6405    14.6385     0.0020   295.0000     4.2183     4.172
     41     0.4999     0.5000     0.0000      5.628     18.000  22200.000      6.000    41.2537    83.3642   -18.0019    -0.0975     1.9545     1.0050    -3.9990    20.6267    41.2566     0.8317    14.6405    14.6385     0.0020   295.0000     4.2154     4.174
     42     0.5050     0.5051    -0.0000      5.569     16.000  22200.000      6.000    41.2537    83.2746   -18.1859    -0.0975     1.9545     1.0050    -3.9990    20.6267    41.2566     0.8401    14.6405    14.6385     0.0020   295.0000     4.2187     4.175
     43     0.5099     0.5100     0.0000      5.571     16.000  22200.000      6.000    41.2537    83.1831   -18.3660    -0.0975     1.9545     1.0050    -3.9990    20.6267    41.2566     0.8484    14.6405    14.6385     0.0020   295.0000     4.2213     4.174
     44     0.5150     0.5151     0.0000      5.543     19.000  22200.000      6.000    41.2537    83.0925   -18.5491    -0.0975     1.9545     1.0050    -3.9990    20.6267    41.2566     0.8568    14.6405    14.6385     0.0020   295.0000     4.2161     4.170
     45     0.5200     0.5201     0.0000      5.553     17.000  22200.000      6.000    41.2537    83.0020   -18.7302    -0.0975     1.9545     1.0050    -3.9990    20.6267    41.2566     0.8650    14.6405    14.6385     0.0020   295.0000     4.2161     4.170
     46     0.5249     0.5250     0.0000      5.579     18.000  22200.000      6.000    41.2537    82.9114   -18.9103    -0.0975     1.9545     1.0050    -3.9990    20.6267    41.2566     0.8733    14.6405    14.6385     0.0020   295.0000     4.2192     4.174
     47     0.5299     0.5300     0.0000      5.569     15.000  22200.000      6.000    41.2537    82.8199   -19.0924    -0.0975     1.9545     1.0050    -3.9990    20.6267    41.2566     0.8816    14.6405    14.6385     0.0020   295.0000     4.2220     4.176
     48     0.5350     0.5351     0.0000      5.548     17.000  22200.000      6.000    41.2537    82.7293   -19.2765    -0.0975     1.9545     1.0050    -3.9990    20.6267    41.2566     0.8900    14.6405    14.6385     0.0020   295.0000     4.2199     4.168
     49     0.5400     0.5401     0.0000      5.502     12.000  22200.000      6.000    41.2537    82.6378   -19.4576    -0.0975     1.9545     1.0050    -3.9990    20.6267    41.2566     0.8983    14.6405    14.6385     0.0020   295.0000     4.2199     4.168
     50     0.5449     0.5450     0.0000      5.593     16.000  22200.000      6.000    41.2537    82.5463   -19.6387    -0.0975     1.9545     1.0050    -3.9990    20.6267    41.2566     0.9066    14.6405    14.6385     0.0020   295.0000     4.2198     4.175
     51     0.5500     0.5501     0.0000      5.560     13.000  22200.000      6.000    41.2537    82.4567   -19.8217    -0.0975     1.9545     1.0050    -3.9990    20.6267    41.2566     0.9150    14.6405    14.6385     0.0020   295.0000     4.2224     4.170
     52     0.5549     0.5550     0.0000      5.520     12.000  22200.000      6.000    41.2537    82.3661   -20.0028    -0.0975     1.9545     1.0050    -3.9990    20.6267    41.2566     0.9232    14.6405    14.6385     0.0020   295.0000     4.2187     4.159
     53     0.5600     0.5601     0.0000      5.525     13.000  22200.000      6.000    41.2537    82.2736   -20.1859    -0.0975     1.9545     1.0050    -3.9990    20.6267    41.2566     0.9316    14.6405    14.6385     0.0020   295.0000     4.2187     4.159
     54     0.5649     0.5650     0.0000      5.564     14.000  22200.000      6.000    41.2537    82.1841   -20.3670    -0.0975     1.9545     1.0050    -3.9990    20.6267    41.2566     0.9399    14.6405    14.6385     0.0020   295.0000     4.2237     4.170
     55     0.5699     0.5700     0.0000      5.608     21.000  22200.000      6.000    41.2537    82.0925   -20.5491    -0.0975     1.9545     1.0050    -3.9990    20.6267    41.2566     0.9482    14.6405    14.6385     0.0020   295.0000     4.2248     4.171
     56     0.5750     0.5751    -0.0000      5.544     11.000  22200.000      6.000    41.2537    82.0020   -20.7332    -0.0975     1.9545     1.0050    -3.9990    20.6267    41.2566     0.9566    14.6405    14.6385     0.0020   295.0000     4.2171     4.163
     57     0.5799     0.5800     0.0000      5.513     15.000  22200.000      6.000    41.2537    81.9104   -20.9133    -0.0975     1.9545     1.0050    -3.9990    20.6267    41.2566     0.9648    14.6405    14.6385     0.0020   295.0000     4.2171     4.163
     58     0.5849     0.5850    -0.0000      5.522     12.000  22200.000      6.000    41.2537    81.8209   -21.0954    -0.0975     1.9545     1.0050    -3.9990    20.6267    41.2566     0.9731    14.6405    14.6385     0.0020   295.0000     4.2206     4.171
     59     0.5900     0.5901    -0.0000      5.582     15.000  22200.000      6.000    41.2537    81.7293   -21.2794    -0.0975     1.9545     1.0050    -3.9990    20.6267    41.2566     0.9815    14.6405    14.6385     0.0020   295.0000     4.2223     4.173
     60     0.5950     0.5951     0.0000      5.528     15.000  22200.000      6.000    41.2537    81.6378   -21.4615    -0.0975     1.9545     1.0050    -3.9990    20.6267    41.2566     0.9898    14.6405    14.6385     0.0020   295.0000     4.2223     4.173
     61     0.6000     0.6001     0.0000      5.550     10.000  22200.000      6.000    41.2537    81.5463   -21.6446    -0.0975     1.9545     1.0050    -3.9990    20.6267    41.2566     0.9981    14.6405    14.6385     0.0020   295.0000     4.2316     4.170
     62     0.6049     0.6050    -0.0000      5.605     10.000  22200.000      6.000    41.2537    81.4567   -21.8257    -0.0975     1.9545     1.0050    -3.9990    20.6267    41.2566     1.0064    14.6405    14.6385     0.0020   295.0000     4.2246     4.172
     63     0.6099     0.6100     0.0000      5.494      6.000  22200.000      6.000    41.2537    81.3632   -22.0078    -0.0975     1.9545     1.0050    -3.9990    20.6267    41.2566     1.0147    14.6405    14.6385     0.0020   295.0000     4.2228     4.172
     64     0.6150     0.6151    -0.0000      5.530     11.000  22200.000      6.000    41.2537    81.2726   -22.1928    -0.0975     1.9545     1.0050    -3.9990    20.6267    41.2566     1.0231    14.6405    14.6385     0.0020   295.0000     4.2228     4.172
     65     0.6199     0.6200    -0.0000      5.528     11.000  22200.000      6.000    41.2537    81.1831   -22.3739    -0.0975     1.9545     1.0050    -3.9990    20.6267    41.2566     1.0314    14.6405    14.6385     0.0020   295.0000     4.2188     4.178
     66     0.6249     0.6250     0.0000      5.528     18.000  22200.000      6.000    41.2537    81.0886   -22.5570    -0.0975     1.9545     1.0050    -3.9990    20.6267    41.2566     1.0397    14.6405    14.6385     0.0020   295.0000     4.2246     4.174
     67     0.6299     0.6301     0.0000      5.563     11.000  22200.000      6.000    41.2537    80.9980   -22.7400    -0.0975     1.9545     1.0050    -3.9990    20.6267    41.2566     1.0480    14.6405    14.6385     0.0020   295.0000     4.2174     4.171
     68     0.6349     0.6351     0.0000      5.535     11.000  22200.000      6.000    41.2537    80.9075   -22.9231    -0.0975     1.9545     1.0050    -3.9990    20.6267    41.2566     1.0563    14.6405    14.6385     0.0020   295.0000     4.2174     4.171
     69     0.6399     0.6400    -0.0000      5.491     12.000  22200.000      6.000    41.2537    80.8169   -23.1052    -0.0975     1.9545     1.0050    -3.9990    20.6267    41.2566     1.0646    14.6405    14.6385     0.0020   295.0000     4.2265     4.167
     70     0.6449     0.6451     0.0000      5.498      7.000  22200.000      6.000    41.2537    80.7234   -23.2893    -0.0975     1.9545     1.0050    -3.9990    20.6267    41.2566     1.0730    14.6405    14.6385     0.0020   295.0000     4.2243     4.171
     71     0.6499     0.6501     0.0000      5.585     12.000  22200.000      6.000    41.2537    80.6329   -23.4723    -0.0975     1.9545     1.0050    -3.9990    20.6267    41.2566     1.0813    14.6405    14.6385     0.0020   295.0000     4.2236     4.173
