# scan = 25
# date = 11/8/2003
# time = 9:52:18 PM
# experiment = TbPtIn single crystal;  100 plane
# experiment_number = 41
# command = scan sgu -4 3.4 .4 preset 2
# builtin_command = scan sgu -4 3.4 .4 preset 2
# users = O.Garlea, C.Stassis, J.L.Zarestky
# local_contact = J.L.Zarestky
# scan_title = 220 L
# monochromator = PG002
# analyzer = Pg002
# sense = +-+
# collimation = 48-40-40-102
# samplename = TbPtIn
# sampletype = crystal
# samplemosaic = 30.000000
# latticeconstants = 7.527800,7.527800,3.846800,90.000000,90.000000,120.000000
# ubmatrix = -0.008315,-0.004833,0.259571,-0.133762,-0.131562,-0.012952,0.074615,-0.078721,0.005708
# mode = 0
# plane_normal = -0.022699,-0.014345,0.999639
# ubconf = C:\User\exp41\UBConf\UB08Nov2003_24818PM.ini
# preset_type = normal 
# preset_channel = mcu
# preset_value = 2.000000
# def_x = sgu
# def_y = detector
# col_headers = 
#   Pt.        sgu       time   detector    monitor        mcu         m2         s1         s2        sgl        stl        stu         a1         a2          q          h          k          l         ei         ef          e       temp    coldtip    tsample
      1    -4.0000      1.910      3.000   7400.000      2.000    41.2537    54.1112   -77.4891     1.3005    -0.0020    -0.0010    20.6267    41.2556     3.3271     1.7989     2.1811    -0.0034    14.6405    14.6392     0.0013   295.0000     9.6657     9.424
      2    -3.6030      1.887     14.000   7400.000      2.000    41.2537    54.1112   -77.4891     1.3005    -0.0020    -0.0010    20.6267    41.2556     3.3271     1.8235     2.1579    -0.0031    14.6405    14.6392     0.0013   295.0000     9.6657     9.424
      3    -3.1995      1.902     97.000   7400.000      2.000    41.2537    54.1112   -77.4891     1.3005    -0.0020    -0.0010    20.6267    41.2556     3.3271     1.8484     2.1343    -0.0027    14.6405    14.6392     0.0013   295.0000     9.6657     9.424
      4    -2.7995      1.859    226.000   7400.000      2.000    41.2537    54.1112   -77.4891     1.3005    -0.0020    -0.0010    20.6267    41.2556     3.3271     1.8729     2.1108    -0.0024    14.6405    14.6392     0.0013   295.0000     9.6582     9.417
      5    -2.4000      1.863    343.000   7400.000      2.000    41.2537    54.1112   -77.4891     1.3005    -0.0020    -0.0010    20.6267    41.2556     3.3271     1.8974     2.0872    -0.0020    14.6405    14.6392     0.0013   295.0000     9.6582     9.417
      6    -1.9995      1.888    446.000   7400.000      2.000    41.2537    54.1102   -77.4891     1.3005    -0.0020    -0.0010    20.6267    41.2556     3.3271     1.9218     2.0635    -0.0016    14.6405    14.6392     0.0013   295.0000     9.6582     9.417
      7    -1.6000      1.899    490.000   7400.000      2.000    41.2537    54.1102   -77.4891     1.3005    -0.0020    -0.0010    20.6267    41.2556     3.3271     1.9461     2.0397    -0.0013    14.6405    14.6392     0.0013   295.0000     9.6573     9.417
      8    -1.1995      1.891    480.000   7400.000      2.000    41.2537    54.1102   -77.4891     1.3005    -0.0020    -0.0010    20.6267    41.2556     3.3271     1.9703     2.0157    -0.0010    14.6405    14.6392     0.0013   295.0000     9.6573     9.417
      9    -0.7995      1.886    380.000   7400.000      2.000    41.2537    54.1102   -77.4891     1.3005    -0.0020    -0.0010    20.6267    41.2556     3.3271     1.9944     1.9917    -0.0007    14.6405    14.6392     0.0013   295.0000     9.6579     9.449
     10    -0.4000      1.885    231.000   7400.000      2.000    41.2537    54.1102   -77.4891     1.3005    -0.0020    -0.0010    20.6267    41.2556     3.3271     2.0184     1.9676    -0.0003    14.6405    14.6392     0.0013   295.0000     9.6579     9.449
     11     0.0005      1.900    103.000   7400.000      2.000    41.2537    54.1102   -77.4891     1.3005    -0.0020    -0.0010    20.6267    41.2556     3.3271     2.0423     1.9434    -0.0000    14.6405    14.6392     0.0013   295.0000     9.6579     9.449
     12     0.3995      1.853     24.000   7400.000      2.000    41.2537    54.1102   -77.4891     1.3005    -0.0020    -0.0010    20.6267    41.2556     3.3271     2.0661     1.9191     0.0003    14.6405    14.6392     0.0013   295.0000     9.6651     9.429
     13     0.8005      1.885      2.000   7400.000      2.000    41.2537    54.1102   -77.4891     1.3005    -0.0020    -0.0010    20.6267    41.2556     3.3271     2.0899     1.8946     0.0006    14.6405    14.6392     0.0013   295.0000     9.6651     9.429
     14     1.2005      1.875      0.000   7400.000      2.000    41.2537    54.1102   -77.4891     1.3005    -0.0020    -0.0010    20.6267    41.2556     3.3271     2.1135     1.8702     0.0009    14.6405    14.6392     0.0013   295.0000     9.6651     9.429
     15     1.6000      1.925      0.000   7400.000      2.000    41.2537    54.1102   -77.4891     1.3005    -0.0020    -0.0010    20.6267    41.2556     3.3271     2.1369     1.8456     0.0012    14.6405    14.6392     0.0013   295.0000     9.7211     9.423
     16     2.0005      1.900      0.000   7400.000      2.000    41.2537    54.1102   -77.4891     1.3005    -0.0020    -0.0010    20.6267    41.2556     3.3271     2.1604     1.8209     0.0015    14.6405    14.6392     0.0013   295.0000     9.7211     9.423
     17     2.4000      1.864      0.000   7400.000      2.000    41.2537    54.1102   -77.4891     1.3005    -0.0020    -0.0010    20.6267    41.2556     3.3271     2.1837     1.7962     0.0018    14.6405    14.6392     0.0013   295.0000     9.6797     9.452
     18     2.8005      1.843      0.000   7400.000      2.000    41.2537    54.1102   -77.4891     1.3005    -0.0020    -0.0010    20.6267    41.2556     3.3271     2.2069     1.7713     0.0020    14.6405    14.6392     0.0013   295.0000     9.6797     9.452
     19     3.2005      1.927      0.000   7400.000      2.000    41.2537    54.1102   -77.4891     1.3005    -0.0020    -0.0010    20.6267    41.2556     3.3271     2.2300     1.7463     0.0023    14.6405    14.6392     0.0013   295.0000     9.6797     9.452
# Sum of Counts = 2839
# Center of Mass = -1.572803+/-0.044563
# Full Width Half-Maximum = 1.661720+/-0.038379
# 9:53:33 PM  11/8/2003   scan completed.
