# scan = 38
# date = 11/9/2003
# time = 2:26:47 AM
# experiment = TbPtIn single crystal;  100 plane
# experiment_number = 41
# command = scan h 1.7 2.8 .005 k 1.7 2.8 .005 l -.3 .8 .005 preset mcu 6
# builtin_command = scan h 1.7 2.8 .005 k 1.7 2.8 .005 l -.3 .8 .005 preset mcu 6
# users = O.Garlea, C.Stassis, J.L.Zarestky
# local_contact = J.L.Zarestky
# scan_title = h,h,h-2 scan
# monochromator = PG002
# analyzer = Pg002
# sense = +-+
# collimation = 48-40-40-102
# samplename = TbPtIn
# sampletype = crystal
# samplemosaic = 30.000000
# latticeconstants = 7.554017,7.554017,3.847681,90.000000,90.000000,120.000000
# ubmatrix = -0.008230,-0.004834,0.259516,-0.134256,-0.130074,-0.012979,0.072618,-0.080146,0.005414
# mode = 0
# plane_normal = -0.022217,-0.027363,0.999379
# ubconf = C:\User\exp41\UBConf\UB08Nov2003_100555PM.ini
# preset_type = normal 
# preset_channel = mcu
# preset_value = 6.000000
# def_x = h
# def_y = detector
# col_headers = 
#   Pt.          h          k          l       time   detector    monitor        mcu         m2         s1         s2        sgl        sgu        stl        stu         a1         a2          q         ei         ef          e       temp    coldtip    tsample
      1     1.7001     1.7000    -0.3000      5.617      0.000  22200.000      6.000    41.2537    69.9783   -65.3552     1.2730    -1.5670    -0.0020    -0.0010    20.6267    41.2556     2.8702    14.6405    14.6392     0.0013   295.0000     9.8517     9.596
      2     1.7050     1.7049    -0.2950      5.608      0.000  22200.000      6.000    41.2537    69.7028   -65.5255     1.2730    -1.5670    -0.0020    -0.0010    20.6267    41.2556     2.8768    14.6405    14.6392     0.0013   295.0000     9.8517     9.596
      3     1.7101     1.7100    -0.2901      5.626      1.000  22200.000      6.000    41.2537    69.4291   -65.7056     1.2730    -1.5670    -0.0020    -0.0010    20.6267    41.2556     2.8839    14.6405    14.6392     0.0013   295.0000     9.8484     9.569
      4     1.7150     1.7149    -0.2851      5.598      0.000  22200.000      6.000    41.2537    69.1545   -65.8798     1.2730    -1.5670    -0.0020    -0.0010    20.6267    41.2556     2.8907    14.6405    14.6392     0.0013   295.0000     9.8476     9.558
      5     1.7200     1.7199    -0.2800      5.686      0.000  22200.000      6.000    41.2537    68.8789   -66.0570     1.2730    -1.5670    -0.0020    -0.0010    20.6267    41.2556     2.8975    14.6405    14.6392     0.0013   295.0000     9.8473     9.565
      6     1.7251     1.7249    -0.2750      5.651      1.000  22200.000      6.000    41.2537    68.6024   -66.2371     1.2730    -1.5670    -0.0020    -0.0010    20.6267    41.2556     2.9046    14.6405    14.6392     0.0013   295.0000     9.8473     9.565
      7     1.7301     1.7299    -0.2700      5.611      0.000  22200.000      6.000    41.2537    68.3287   -66.4152     1.2730    -1.5670    -0.0020    -0.0010    20.6267    41.2556     2.9115    14.6405    14.6392     0.0013   295.0000     9.8419     9.555
      8     1.7351     1.7349    -0.2650      5.624      0.000  22200.000      6.000    41.2537    68.0571   -66.5963     1.2730    -1.5670    -0.0020    -0.0010    20.6267    41.2556     2.9185    14.6405    14.6392     0.0013   295.0000     9.8455     9.562
      9     1.7401     1.7399    -0.2601      5.599      1.000  22200.000      6.000    41.2537    67.7844   -66.7784     1.2730    -1.5670    -0.0020    -0.0010    20.6267    41.2556     2.9256    14.6405    14.6392     0.0013   295.0000     9.8171     9.529
     10     1.7450     1.7449    -0.2550      5.577      0.000  22200.000      6.000    41.2537    67.5108   -66.9585     1.2730    -1.5670    -0.0020    -0.0010    20.6267    41.2556     2.9325    14.6405    14.6392     0.0013   295.0000     9.8171     9.529
     11     1.7501     1.7500    -0.2500      5.640      0.000  22200.000      6.000    41.2537    67.2382   -67.1446     1.2730    -1.5670    -0.0020    -0.0010    20.6267    41.2556     2.9397    14.6405    14.6392     0.0013   295.0000     9.8380     9.501
     12     1.7551     1.7549    -0.2450      5.640      0.000  22200.000      6.000    41.2537    66.9665   -67.3267     1.2730    -1.5670    -0.0020    -0.0010    20.6267    41.2556     2.9468    14.6405    14.6392     0.0013   295.0000     9.8366     9.511
     13     1.7601     1.7599    -0.2400      5.569      0.000  22200.000      6.000    41.2537    66.6949   -67.5127     1.2730    -1.5670    -0.0020    -0.0010    20.6267    41.2556     2.9539    14.6405    14.6392     0.0013   295.0000     9.8346     9.526
     14     1.7651     1.7649    -0.2350      5.597      1.000  22200.000      6.000    41.2537    66.4242   -67.6997     1.2730    -1.5670    -0.0020    -0.0010    20.6267    41.2556     2.9611    14.6405    14.6392     0.0013   295.0000     9.8346     9.526
     15     1.7700     1.7699    -0.2300      5.666      0.000  22200.000      6.000    41.2537    66.1535   -67.8837     1.2730    -1.5670    -0.0020    -0.0010    20.6267    41.2556     2.9682    14.6405    14.6392     0.0013   295.0000     9.8480     9.559
     16     1.7751     1.7749    -0.2250      5.650      1.000  22200.000      6.000    41.2537    65.8839   -68.0737     1.2730    -1.5670    -0.0020    -0.0010    20.6267    41.2556     2.9755    14.6405    14.6392     0.0013   295.0000     9.8421     9.544
     17     1.7801     1.7799    -0.2200      5.617      0.000  22200.000      6.000    41.2537    65.6122   -68.2627     1.2730    -1.5670    -0.0020    -0.0010    20.6267    41.2556     2.9828    14.6405    14.6392     0.0013   295.0000     9.8284     9.564
     18     1.7851     1.7849    -0.2150      5.717      1.000  22200.000      6.000    41.2537    65.3425   -68.4526     1.2730    -1.5670    -0.0020    -0.0010    20.6267    41.2556     2.9901    14.6405    14.6392     0.0013   295.0000     9.8284     9.564
     19     1.7901     1.7900    -0.2101      5.572      1.000  22200.000      6.000    41.2537    65.0768   -68.6475     1.2730    -1.5670    -0.0020    -0.0010    20.6267    41.2556     2.9976    14.6405    14.6392     0.0013   295.0000     9.8432     9.549
     20     1.7951     1.7949    -0.2051      5.511      1.000  22200.000      6.000    41.2537    64.8081   -68.8355     1.2730    -1.5670    -0.0020    -0.0010    20.6267    41.2556     3.0048    14.6405    14.6392     0.0013   295.0000     9.8488     9.549
     21     1.8000     1.7999    -0.2000      5.579      1.000  22200.000      6.000    41.2537    64.5374   -69.0265     1.2730    -1.5670    -0.0020    -0.0010    20.6267    41.2556     3.0121    14.6405    14.6392     0.0013   295.0000     9.8414     9.589
     22     1.8051     1.8050    -0.1950      5.614      0.000  22200.000      6.000    41.2537    64.2687   -69.2233     1.2730    -1.5670    -0.0020    -0.0010    20.6267    41.2556     3.0196    14.6405    14.6392     0.0013   295.0000     9.8414     9.589
     23     1.8101     1.8099    -0.1901      5.662      0.000  22200.000      6.000    41.2537    64.0039   -69.4162     1.2730    -1.5670    -0.0020    -0.0010    20.6267    41.2556     3.0269    14.6405    14.6392     0.0013   295.0000     9.8367     9.552
     24     1.8151     1.8149    -0.1850      5.621      1.000  22200.000      6.000    41.2537    63.7352   -69.6111     1.2730    -1.5670    -0.0020    -0.0010    20.6267    41.2556     3.0344    14.6405    14.6392     0.0013   295.0000     9.8377     9.531
     25     1.8200     1.8199    -0.1801      5.623      0.000  22200.000      6.000    41.2537    63.4705   -69.8070     1.2730    -1.5670    -0.0020    -0.0010    20.6267    41.2556     3.0418    14.6405    14.6392     0.0013   295.0000     9.8382     9.577
     26     1.8250     1.8249    -0.1750      5.687      0.000  22200.000      6.000    41.2537    63.2037   -70.0038     1.2730    -1.5670    -0.0020    -0.0010    20.6267    41.2556     3.0493    14.6405    14.6392     0.0013   295.0000     9.8382     9.577
     27     1.8301     1.8300    -0.1700      5.620      1.000  22200.000      6.000    41.2537    62.9360   -70.2056     1.2730    -1.5670    -0.0020    -0.0010    20.6267    41.2556     3.0570    14.6405    14.6392     0.0013   295.0000     9.8379     9.536
     28     1.8351     1.8349    -0.1650      5.666      1.000  22200.000      6.000    41.2537    62.6693   -70.4024     1.2730    -1.5670    -0.0020    -0.0010    20.6267    41.2556     3.0644    14.6405    14.6392     0.0013   295.0000     9.8313     9.528
     29     1.8401     1.8399    -0.1600      5.588      1.000  22200.000      6.000    41.2537    62.4035   -70.6022     1.2730    -1.5670    -0.0020    -0.0010    20.6267    41.2556     3.0720    14.6405    14.6392     0.0013   295.0000     9.8400     9.601
     30     1.8451     1.8449    -0.1550      5.683      2.000  22200.000      6.000    41.2537    62.1398   -70.8040     1.2730    -1.5670    -0.0020    -0.0010    20.6267    41.2556     3.0796    14.6405    14.6392     0.0013   295.0000     9.8400     9.601
     31     1.8501     1.8499    -0.1500      5.571      1.000  22200.000      6.000    41.2537    61.8760   -71.0048     1.2730    -1.5670    -0.0020    -0.0010    20.6267    41.2556     3.0872    14.6405    14.6392     0.0013   295.0000     9.8359     9.526
     32     1.8551     1.8549    -0.1450      5.585      3.000  22200.000      6.000    41.2537    61.6102   -71.2095     1.2730    -1.5670    -0.0020    -0.0010    20.6267    41.2556     3.0950    14.6405    14.6392     0.0013   295.0000     9.8269     9.523
     33     1.8601     1.8599    -0.1400      5.626      1.000  22200.000      6.000    41.2537    61.3465   -71.4113     1.2730    -1.5670    -0.0020    -0.0010    20.6267    41.2556     3.1026    14.6405    14.6392     0.0013   295.0000     9.8441     9.593
     34     1.8651     1.8649    -0.1350      5.622      2.000  22200.000      6.000    41.2537    61.0837   -71.6170     1.2730    -1.5670    -0.0020    -0.0010    20.6267    41.2556     3.1103    14.6405    14.6392     0.0013   295.0000     9.8441     9.593
     35     1.8701     1.8699    -0.1300      5.628      3.000  22200.000      6.000    41.2537    60.8199   -71.8217     1.2730    -1.5670    -0.0020    -0.0010    20.6267    41.2556     3.1180    14.6405    14.6392     0.0013   295.0000     9.8274     9.530
     36     1.8751     1.8749    -0.1250      5.578      0.000  22200.000      6.000    41.2537    60.5561   -72.0284     1.2730    -1.5670    -0.0020    -0.0010    20.6267    41.2556     3.1258    14.6405    14.6392     0.0013   295.0000     9.8244     9.516
     37     1.8801     1.8799    -0.1200      5.676      2.000  22200.000      6.000    41.2537    60.2953   -72.2371     1.2730    -1.5670    -0.0020    -0.0010    20.6267    41.2556     3.1336    14.6405    14.6392     0.0013   295.0000     9.8244     9.516
     38     1.8850     1.8849    -0.1150      5.663      0.000  22200.000      6.000    41.2537    60.0325   -72.4438     1.2730    -1.5670    -0.0020    -0.0010    20.6267    41.2556     3.1413    14.6405    14.6392     0.0013   295.0000     9.8352     9.606
     39     1.8901     1.8900    -0.1101      5.626      0.000  22200.000      6.000    41.2537    59.7707   -72.6564     1.2730    -1.5670    -0.0020    -0.0010    20.6267    41.2556     3.1493    14.6405    14.6392     0.0013   295.0000     9.8287     9.529
     40     1.8950     1.8949    -0.1049      5.635      2.000  22200.000      6.000    41.2537    59.5079   -72.8621     1.2730    -1.5670    -0.0020    -0.0010    20.6267    41.2556     3.1570    14.6405    14.6392     0.0013   295.0000     9.8271     9.531
     41     1.9001     1.8999    -0.1000      5.671      0.000  22200.000      6.000    41.2537    59.2480   -73.0747     1.2730    -1.5670    -0.0020    -0.0010    20.6267    41.2556     3.1649    14.6405    14.6392     0.0013   295.0000     9.8271     9.531
     42     1.9051     1.9050    -0.0951      5.565      0.000  22200.000      6.000    41.2537    58.9892   -73.2893     1.2730    -1.5670    -0.0020    -0.0010    20.6267    41.2556     3.1729    14.6405    14.6392     0.0013   295.0000     9.8520     9.609
     43     1.9100     1.9099    -0.0900      5.607      1.000  22200.000      6.000    41.2537    58.7264   -73.4989     1.2730    -1.5670    -0.0020    -0.0010    20.6267    41.2556     3.1807    14.6405    14.6392     0.0013   295.0000     9.8245     9.533
     44     1.9151     1.9149    -0.0850      5.640      0.000  22200.000      6.000    41.2537    58.4646   -73.7145     1.2730    -1.5670    -0.0020    -0.0010    20.6267    41.2556     3.1887    14.6405    14.6392     0.0013   295.0000     9.8201     9.516
     45     1.9201     1.9199    -0.0800      5.618      0.000  22200.000      6.000    41.2537    58.2057   -73.9280     1.2730    -1.5670    -0.0020    -0.0010    20.6267    41.2556     3.1966    14.6405    14.6392     0.0013   295.0000     9.8201     9.516
     46     1.9251     1.9249    -0.0750      5.650      0.000  22200.000      6.000    41.2537    57.9459   -74.1446     1.2730    -1.5670    -0.0020    -0.0010    20.6267    41.2556     3.2046    14.6405    14.6392     0.0013   295.0000     9.8247     9.552
     47     1.9301     1.9299    -0.0700      5.610      2.000  22200.000      6.000    41.2537    57.6860   -74.3601     1.2730    -1.5670    -0.0020    -0.0010    20.6267    41.2556     3.2126    14.6405    14.6392     0.0013   295.0000     9.8189     9.507
     48     1.9351     1.9349    -0.0650      5.606      0.000  22200.000      6.000    41.2537    57.4262   -74.5776     1.2730    -1.5670    -0.0020    -0.0010    20.6267    41.2556     3.2206    14.6405    14.6392     0.0013   295.0000     9.8160     9.510
     49     1.9401     1.9399    -0.0601      5.615      0.000  22200.000      6.000    41.2537    57.1703   -74.7981     1.2730    -1.5670    -0.0020    -0.0010    20.6267    41.2556     3.2288    14.6405    14.6392     0.0013   295.0000     9.8160     9.510
     50     1.9450     1.9449    -0.0550      5.539      2.000  22200.000      6.000    41.2537    56.9104   -75.0146     1.2730    -1.5670    -0.0020    -0.0010    20.6267    41.2556     3.2368    14.6405    14.6392     0.0013   295.0000     9.8135     9.604
     51     1.9501     1.9499    -0.0500      5.636      1.000  22200.000      6.000    41.2537    56.6496   -75.2381     1.2730    -1.5670    -0.0020    -0.0010    20.6267    41.2556     3.2450    14.6405    14.6392     0.0013   295.0000     9.8012     9.512
     52     1.9551     1.9549    -0.0449      5.645      0.000  22200.000      6.000    41.2537    56.3917   -75.4566     1.2730    -1.5670    -0.0020    -0.0010    20.6267    41.2556     3.2530    14.6405    14.6392     0.0013   295.0000     9.7976     9.505
     53     1.9601     1.9599    -0.0401      5.633      1.000  22200.000      6.000    41.2537    56.1368   -75.6810     1.2730    -1.5670    -0.0020    -0.0010    20.6267    41.2556     3.2612    14.6405    14.6392     0.0013   295.0000     9.7976     9.505
     54     1.9650     1.9649    -0.0350      5.601      1.000  22200.000      6.000    41.2537    55.8789   -75.9015     1.2730    -1.5670    -0.0020    -0.0010    20.6267    41.2556     3.2693    14.6405    14.6392     0.0013   295.0000     9.7947     9.513
     55     1.9701     1.9700    -0.0300      5.702      1.000  22200.000      6.000    41.2537    55.6191   -76.1298     1.2730    -1.5670    -0.0020    -0.0010    20.6267    41.2556     3.2776    14.6405    14.6392     0.0013   295.0000     9.7911     9.476
     56     1.9751     1.9749    -0.0250      5.615      3.000  22200.000      6.000    41.2537    55.3622   -76.3513     1.2730    -1.5670    -0.0020    -0.0010    20.6267    41.2556     3.2857    14.6405    14.6392     0.0013   295.0000     9.7926     9.490
     57     1.9801     1.9799    -0.0200      5.630      7.000  22200.000      6.000    41.2537    55.1073   -76.5767     1.2730    -1.5670    -0.0020    -0.0010    20.6267    41.2556     3.2939    14.6405    14.6392     0.0013   295.0000     9.7926     9.490
     58     1.9851     1.9849    -0.0150      5.695     11.000  22200.000      6.000    41.2537    54.8504   -76.8030     1.2730    -1.5670    -0.0020    -0.0010    20.6267    41.2556     3.3022    14.6405    14.6392     0.0013   295.0000     9.7927     9.536
     59     1.9901     1.9899    -0.0100      5.576    121.000  22200.000      6.000    41.2537    54.5945   -77.0324     1.2730    -1.5670    -0.0020    -0.0010    20.6267    41.2556     3.3105    14.6405    14.6392     0.0013   295.0000     9.7823     9.487
     60     1.9951     1.9949    -0.0050      5.602    866.000  22200.000      6.000    41.2537    54.3386   -77.2597     1.2730    -1.5670    -0.0020    -0.0010    20.6267    41.2556     3.3187    14.6405    14.6392     0.0013   295.0000     9.7757     9.537
     61     2.0001     1.9999    -0.0000      5.615   1539.000  22200.000      6.000    41.2537    54.0837   -77.4891     1.2730    -1.5670    -0.0020    -0.0010    20.6267    41.2556     3.3271    14.6405    14.6392     0.0013   295.0000     9.7798     9.546
     62     2.0051     2.0049     0.0049      5.608    862.000  22200.000      6.000    41.2537    53.8287   -77.7204     1.2730    -1.5670    -0.0020    -0.0010    20.6267    41.2556     3.3354    14.6405    14.6392     0.0013   295.0000     9.7798     9.546
     63     2.0101     2.0099     0.0101      5.637    147.000  22200.000      6.000    41.2537    53.5699   -77.9507     1.2730    -1.5670    -0.0020    -0.0010    20.6267    41.2556     3.3437    14.6405    14.6392     0.0013   295.0000     9.7730     9.527
     64     2.0151     2.0149     0.0150      5.656      8.000  22200.000      6.000    41.2537    53.3179   -78.1839     1.2730    -1.5670    -0.0020    -0.0010    20.6267    41.2556     3.3521    14.6405    14.6392     0.0013   295.0000     9.7736     9.492
     65     2.0201     2.0199     0.0199      5.628      2.000  22200.000      6.000    41.2537    53.0640   -78.4162     1.2730    -1.5670    -0.0020    -0.0010    20.6267    41.2556     3.3605    14.6405    14.6392     0.0013   295.0000     9.7667     9.588
     66     2.0251     2.0250     0.0248      5.560      0.000  22200.000      6.000    41.2537    52.8110   -78.6524     1.2730    -1.5670    -0.0020    -0.0010    20.6267    41.2556     3.3690    14.6405    14.6392     0.0013   295.0000     9.7667     9.588
     67     2.0300     2.0299     0.0301      5.681      0.000  22200.000      6.000    41.2537    52.5522   -78.8837     1.2730    -1.5670    -0.0020    -0.0010    20.6267    41.2556     3.3773    14.6405    14.6392     0.0013   295.0000     9.7598     9.469
     68     2.0351     2.0349     0.0350      5.593      0.000  22200.000      6.000    41.2537    52.3002   -79.1209     1.2730    -1.5670    -0.0020    -0.0010    20.6267    41.2556     3.3858    14.6405    14.6392     0.0013   295.0000     9.7570     9.463
     69     2.0401     2.0399     0.0400      5.641      2.000  22200.000      6.000    41.2537    52.0453   -79.3591     1.2730    -1.5670    -0.0020    -0.0010    20.6267    41.2556     3.3943    14.6405    14.6392     0.0013   295.0000     9.7605     9.536
     70     2.0451     2.0449     0.0450      5.698      2.000  22200.000      6.000    41.2537    51.7913   -79.5954     1.2730    -1.5670    -0.0020    -0.0010    20.6267    41.2556     3.4027    14.6405    14.6392     0.0013   295.0000     9.7605     9.536
     71     2.0501     2.0499     0.0500      5.648      1.000  22200.000      6.000    41.2537    51.5394   -79.8355     1.2730    -1.5670    -0.0020    -0.0010    20.6267    41.2556     3.4112    14.6405    14.6392     0.0013   295.0000     9.7620     9.480
