# scan = 19
# date = 11/8/2003
# time = 2:40:00 PM
# experiment = TbPtIn single crystal;  100 plane
# experiment_number = 41
# command = scanrel s1 1 -1 -.1 preset mcu 2
# builtin_command = scan s1 @(s1)+1 @(s1)+-1 -0.100000
# users = O.Garlea, C.Stassis, J.L.Zarestky
# local_contact = J.L.Zarestky
# scan_title = 
# monochromator = PG002
# analyzer = Pg002
# sense = +-+
# collimation = 48-40-40-102
# samplename = TbPtIn
# sampletype = crystal
# samplemosaic = 30.000000
# latticeconstants = 7.527800,7.527800,3.846800,90.000000,90.000000,120.000000
# ubmatrix = -0.007487,-0.005979,0.259610,-0.134627,-0.130620,-0.013238,0.073134,-0.080198,0.002206
# mode = 0
# plane_normal = -0.009826,-0.026123,0.999610
# ubconf = C:\User\exp41\UBConf\UB08Nov2003_124214PM.ini
# preset_type = normal 
# preset_channel = mcu
# preset_value = 1.000000
# def_x = s1
# def_y = detector
# col_headers = 
#   Pt.         s1       time   detector    monitor        mcu         m2         s2        sgl        sgu        stl        stu         a1         a2          q          h          k          l         ei         ef          e       temp    coldtip    tsample
      1   -34.0167      0.939      0.000   3700.000      1.000    41.2537   -75.8316     0.5630    -1.4970    -0.0020    -0.0010    20.6267    41.2556     3.2667     0.0340     0.0340     1.9997    14.6405    14.6392     0.0013   295.0000   298.2080   299.716
      2   -34.1161      0.946      1.000   3700.000      1.000    41.2537   -75.8316     0.5630    -1.4970    -0.0020    -0.0010    20.6267    41.2556     3.2667     0.0306     0.0306     1.9998    14.6405    14.6392     0.0013   295.0000   298.2290   299.982
      3   -34.2165      0.961      1.000   3700.000      1.000    41.2537   -75.8316     0.5630    -1.4970    -0.0020    -0.0010    20.6267    41.2556     3.2667     0.0272     0.0272     1.9998    14.6405    14.6392     0.0013   295.0000   298.2290   299.982
      4   -34.3159      0.915      1.000   3700.000      1.000    41.2537   -75.8316     0.5630    -1.4970    -0.0020    -0.0010    20.6267    41.2556     3.2667     0.0238     0.0238     1.9999    14.6405    14.6392     0.0013   295.0000   298.2290   299.982
      5   -34.4173      0.938      2.000   3700.000      1.000    41.2537   -75.8316     0.5630    -1.4970    -0.0020    -0.0010    20.6267    41.2556     3.2667     0.0203     0.0203     1.9999    14.6405    14.6392     0.0013   295.0000   298.2290   299.982
      6   -34.5167      0.955      0.000   3700.000      1.000    41.2537   -75.8316     0.5630    -1.4970    -0.0020    -0.0010    20.6267    41.2556     3.2667     0.0169     0.0169     1.9999    14.6405    14.6392     0.0013   295.0000   298.2290   299.982
      7   -34.6161      0.972      3.000   3700.000      1.000    41.2537   -75.8316     0.5630    -1.4970    -0.0020    -0.0010    20.6267    41.2556     3.2667     0.0135     0.0135     2.0000    14.6405    14.6392     0.0013   295.0000   298.2080   299.728
      8   -34.7165      0.955     10.000   3700.000      1.000    41.2537   -75.8316     0.5630    -1.4970    -0.0020    -0.0010    20.6267    41.2556     3.2667     0.0101     0.0101     2.0000    14.6405    14.6392     0.0013   295.0000   298.2080   299.728
      9   -34.8159      0.940     29.000   3700.000      1.000    41.2537   -75.8316     0.5630    -1.4970    -0.0020    -0.0010    20.6267    41.2556     3.2667     0.0067     0.0067     2.0000    14.6405    14.6392     0.0013   295.0000   298.2080   299.728
     10   -34.9173      0.963     40.000   3700.000      1.000    41.2537   -75.8316     0.5630    -1.4970    -0.0020    -0.0010    20.6267    41.2556     3.2667     0.0032     0.0032     2.0000    14.6405    14.6392     0.0013   295.0000   298.2080   299.728
     11   -35.0157      0.962     93.000   3700.000      1.000    41.2537   -75.8316     0.5630    -1.4970    -0.0020    -0.0010    20.6267    41.2556     3.2667    -0.0001    -0.0001     2.0000    14.6405    14.6392     0.0013   295.0000   298.1950   299.792
     12   -35.1161      0.909    104.000   3700.000      1.000    41.2537   -75.8316     0.5630    -1.4970    -0.0020    -0.0010    20.6267    41.2556     3.2667    -0.0036    -0.0036     2.0000    14.6405    14.6392     0.0013   295.0000   298.1950   299.792
     13   -35.2175      0.980     66.000   3700.000      1.000    41.2537   -75.8316     0.5630    -1.4970    -0.0020    -0.0010    20.6267    41.2556     3.2667    -0.0070    -0.0070     2.0000    14.6405    14.6392     0.0013   295.0000   298.1950   299.792
     14   -35.3169      0.936     40.000   3700.000      1.000    41.2537   -75.8316     0.5630    -1.4970    -0.0020    -0.0010    20.6267    41.2556     3.2667    -0.0104    -0.0104     2.0000    14.6405    14.6392     0.0013   295.0000   298.1950   299.792
     15   -35.4163      0.928     13.000   3700.000      1.000    41.2537   -75.8316     0.5630    -1.4970    -0.0020    -0.0010    20.6267    41.2556     3.2667    -0.0138    -0.0138     2.0000    14.6405    14.6392     0.0013   295.0000   298.1950   299.792
     16   -35.5157      0.936      7.000   3700.000      1.000    41.2537   -75.8316     0.5630    -1.4970    -0.0020    -0.0010    20.6267    41.2556     3.2667    -0.0172    -0.0172     1.9999    14.6405    14.6392     0.0013   295.0000   298.1870   299.709
     17   -35.6161      0.955      3.000   3700.000      1.000    41.2537   -75.8316     0.5630    -1.4970    -0.0020    -0.0010    20.6267    41.2556     3.2667    -0.0206    -0.0206     1.9999    14.6405    14.6392     0.0013   295.0000   298.1870   299.709
     18   -35.7165      0.953      0.000   3700.000      1.000    41.2537   -75.8316     0.5630    -1.4970    -0.0020    -0.0010    20.6267    41.2556     3.2667    -0.0241    -0.0241     1.9999    14.6405    14.6392     0.0013   295.0000   298.1870   299.709
     19   -35.8159      0.936      0.000   3700.000      1.000    41.2537   -75.8316     0.5630    -1.4970    -0.0020    -0.0010    20.6267    41.2556     3.2667    -0.0275    -0.0275     1.9998    14.6405    14.6392     0.0013   295.0000   298.1870   299.709
     20   -35.9163      0.925      0.000   3700.000      1.000    41.2537   -75.8316     0.5630    -1.4970    -0.0020    -0.0010    20.6267    41.2556     3.2667    -0.0309    -0.0309     1.9998    14.6405    14.6392     0.0013   295.0000   298.1870   299.709
     21   -36.0167      0.969      0.000   3700.000      1.000    41.2537   -75.8316     0.5630    -1.4970    -0.0020    -0.0010    20.6267    41.2556     3.2667    -0.0343    -0.0343     1.9997    14.6405    14.6392     0.0013   295.0000   298.1830   299.743
# Sum of Counts = 413
# Center of Mass = -35.085436+/-2.441576
# Full Width Half-Maximum = 0.391771+/-1.161357
# 2:40:46 PM  11/8/2003   scan completed.
