# scan = 37
# date = 11/9/2003
# time = 1:39:45 AM
# experiment = TbPtIn single crystal;  100 plane
# experiment_number = 41
# command = scan h 0.7 2.505 .005 k 0.7 2.505 .005 l -0.3 1.505 .005 preset mcu 6
# builtin_command = scan h 0.7 2.505 .005 k 0.7 2.505 .005 l -0.3 1.505 .005 preset mcu 6
# users = O.Garlea, C.Stassis, J.L.Zarestky
# local_contact = J.L.Zarestky
# scan_title = h,h,h-1 scan
# monochromator = PG002
# analyzer = Pg002
# sense = +-+
# collimation = 48-40-40-102
# samplename = TbPtIn
# sampletype = crystal
# samplemosaic = 30.000000
# latticeconstants = 7.554017,7.554017,3.847681,90.000000,90.000000,120.000000
# ubmatrix = -0.008230,-0.004834,0.259516,-0.134256,-0.130074,-0.012979,0.072618,-0.080146,0.005414
# mode = 0
# plane_normal = -0.022217,-0.027363,0.999379
# ubconf = C:\User\exp41\UBConf\UB08Nov2003_100555PM.ini
# preset_type = normal 
# preset_channel = mcu
# preset_value = 6.000000
# def_x = h
# def_y = detector
# col_headers = 
#   Pt.          h          k          l       time   detector    monitor        mcu         m2         s1         s2        sgl        sgu        stl        stu         a1         a2          q         ei         ef          e       temp    coldtip    tsample
      1     0.7000     0.7000    -0.3001      5.613      1.000  22200.000      6.000    41.2537   101.8967   -27.4959     1.2730    -1.5670    -0.0020    -0.0010    20.6267    41.2556     1.2634    14.6405    14.6392     0.0013   295.0000     9.8070     9.531
      2     0.7051     0.7050    -0.2950      5.603      0.000  22200.000      6.000    41.2537   101.3524   -27.5963     1.2730    -1.5670    -0.0020    -0.0010    20.6267    41.2556     1.2679    14.6405    14.6392     0.0013   295.0000     9.7391     9.504
      3     0.7100     0.7100    -0.2900      5.630      3.000  22200.000      6.000    41.2537   100.8209   -27.6987     1.2730    -1.5670    -0.0020    -0.0010    20.6267    41.2556     1.2725    14.6405    14.6392     0.0013   295.0000     9.8163     9.519
      4     0.7150     0.7150    -0.2850      5.610      0.000  22200.000      6.000    41.2537   100.2894   -27.8030     1.2730    -1.5670    -0.0020    -0.0010    20.6267    41.2556     1.2772    14.6405    14.6392     0.0013   295.0000     9.7521     9.531
      5     0.7200     0.7200    -0.2800      5.597      2.000  22200.000      6.000    41.2537    99.7608   -27.9103     1.2730    -1.5670    -0.0020    -0.0010    20.6267    41.2556     1.2820    14.6405    14.6392     0.0013   295.0000     9.7542     9.594
      6     0.7250     0.7249    -0.2750      5.688      0.000  22200.000      6.000    41.2537    99.2362   -28.0186     1.2730    -1.5670    -0.0020    -0.0010    20.6267    41.2556     1.2869    14.6405    14.6392     0.0013   295.0000     9.7542     9.594
      7     0.7301     0.7300    -0.2700      5.625      0.000  22200.000      6.000    41.2537    98.7116   -28.1328     1.2730    -1.5670    -0.0020    -0.0010    20.6267    41.2556     1.2920    14.6405    14.6392     0.0013   295.0000     9.7542     9.535
      8     0.7350     0.7350    -0.2650      5.597      0.000  22200.000      6.000    41.2537    98.1909   -28.2430     1.2730    -1.5670    -0.0020    -0.0010    20.6267    41.2556     1.2970    14.6405    14.6392     0.0013   295.0000     9.7448     9.457
      9     0.7400     0.7400    -0.2600      5.602      0.000  22200.000      6.000    41.2537    97.6732   -28.3582     1.2730    -1.5670    -0.0020    -0.0010    20.6267    41.2556     1.3022    14.6405    14.6392     0.0013   295.0000     9.7519     9.533
     10     0.7450     0.7449    -0.2550      5.592      0.000  22200.000      6.000    41.2537    97.1624   -28.4733     1.2730    -1.5670    -0.0020    -0.0010    20.6267    41.2556     1.3074    14.6405    14.6392     0.0013   295.0000     9.7519     9.533
     11     0.7500     0.7500    -0.2500      5.655      0.000  22200.000      6.000    41.2537    96.6476   -28.5934     1.2730    -1.5670    -0.0020    -0.0010    20.6267    41.2556     1.3128    14.6405    14.6392     0.0013   295.0000     9.7571     9.472
     12     0.7550     0.7550    -0.2450      5.632      0.000  22200.000      6.000    41.2537    96.1388   -28.7135     1.2730    -1.5670    -0.0020    -0.0010    20.6267    41.2556     1.3182    14.6405    14.6392     0.0013   295.0000     9.7515     9.444
     13     0.7600     0.7599    -0.2400      5.589      2.000  22200.000      6.000    41.2537    95.6289   -28.8345     1.2730    -1.5670    -0.0020    -0.0010    20.6267    41.2556     1.3236    14.6405    14.6392     0.0013   295.0000     9.7577     9.468
     14     0.7650     0.7650    -0.2350      5.655      1.000  22200.000      6.000    41.2537    95.1250   -28.9585     1.2730    -1.5670    -0.0020    -0.0010    20.6267    41.2556     1.3292    14.6405    14.6392     0.0013   295.0000     9.7577     9.468
     15     0.7700     0.7700    -0.2300      5.649      1.000  22200.000      6.000    41.2537    94.6250   -29.0855     1.2730    -1.5670    -0.0020    -0.0010    20.6267    41.2556     1.3349    14.6405    14.6392     0.0013   295.0000     9.8215     9.541
     16     0.7750     0.7750    -0.2251      5.573      2.000  22200.000      6.000    41.2537    94.1299   -29.2135     1.2730    -1.5670    -0.0020    -0.0010    20.6267    41.2556     1.3406    14.6405    14.6392     0.0013   295.0000     9.7591     9.473
     17     0.7800     0.7799    -0.2200      5.597      3.000  22200.000      6.000    41.2537    93.6289   -29.3404     1.2730    -1.5670    -0.0020    -0.0010    20.6267    41.2556     1.3463    14.6405    14.6392     0.0013   295.0000     9.7574     9.536
     18     0.7850     0.7850    -0.2150      5.581      0.000  22200.000      6.000    41.2537    93.1329   -29.4723     1.2730    -1.5670    -0.0020    -0.0010    20.6267    41.2556     1.3522    14.6405    14.6392     0.0013   295.0000     9.7574     9.536
     19     0.7900     0.7900    -0.2100      5.627      2.000  22200.000      6.000    41.2537    92.6467   -29.6052     1.2730    -1.5670    -0.0020    -0.0010    20.6267    41.2556     1.3582    14.6405    14.6392     0.0013   295.0000     9.7630     9.513
     20     0.7950     0.7950    -0.2050      5.566      0.000  22200.000      6.000    41.2537    92.1604   -29.7400     1.2730    -1.5670    -0.0020    -0.0010    20.6267    41.2556     1.3642    14.6405    14.6392     0.0013   295.0000     9.7723     9.527
     21     0.8000     0.8000    -0.2000      5.621      1.000  22200.000      6.000    41.2537    91.6742   -29.8749     1.2730    -1.5670    -0.0020    -0.0010    20.6267    41.2556     1.3703    14.6405    14.6392     0.0013   295.0000     9.7640     9.481
     22     0.8050     0.8049    -0.1950      5.645      1.000  22200.000      6.000    41.2537    91.1949   -30.0117     1.2730    -1.5670    -0.0020    -0.0010    20.6267    41.2556     1.3764    14.6405    14.6392     0.0013   295.0000     9.7640     9.481
     23     0.8100     0.8100    -0.1900      5.666      1.000  22200.000      6.000    41.2537    90.7156   -30.1524     1.2730    -1.5670    -0.0020    -0.0010    20.6267    41.2556     1.3827    14.6405    14.6392     0.0013   295.0000     9.8237     9.525
     24     0.8151     0.8150    -0.1850      5.599      0.000  22200.000      6.000    41.2537    90.2402   -30.2942     1.2730    -1.5670    -0.0020    -0.0010    20.6267    41.2556     1.3891    14.6405    14.6392     0.0013   295.0000     9.7685     9.524
     25     0.8200     0.8200    -0.1800      5.656      1.000  22200.000      6.000    41.2537    89.7667   -30.4359     1.2730    -1.5670    -0.0020    -0.0010    20.6267    41.2556     1.3954    14.6405    14.6392     0.0013   295.0000     9.7769     9.550
     26     0.8250     0.8250    -0.1750      5.575      0.000  22200.000      6.000    41.2537    89.2953   -30.5796     1.2730    -1.5670    -0.0020    -0.0010    20.6267    41.2556     1.4019    14.6405    14.6392     0.0013   295.0000     9.7769     9.550
     27     0.8301     0.8300    -0.1701      5.644      0.000  22200.000      6.000    41.2537    88.8327   -30.7263     1.2730    -1.5670    -0.0020    -0.0010    20.6267    41.2556     1.4084    14.6405    14.6392     0.0013   295.0000     9.8290     9.531
     28     0.8350     0.8349    -0.1650      5.648      1.000  22200.000      6.000    41.2537    88.3661   -30.8709     1.2730    -1.5670    -0.0020    -0.0010    20.6267    41.2556     1.4149    14.6405    14.6392     0.0013   295.0000     9.7764     9.529
     29     0.8401     0.8400    -0.1600      5.532      5.000  22200.000      6.000    41.2537    87.9055   -31.0225     1.2730    -1.5670    -0.0020    -0.0010    20.6267    41.2556     1.4217    14.6405    14.6392     0.0013   295.0000     9.7816     9.502
     30     0.8451     0.8450    -0.1550      5.632      1.000  22200.000      6.000    41.2537    87.4459   -31.1741     1.2730    -1.5670    -0.0020    -0.0010    20.6267    41.2556     1.4284    14.6405    14.6392     0.0013   295.0000     9.7816     9.502
     31     0.8500     0.8500    -0.1500      5.636      1.000  22200.000      6.000    41.2537    86.9931   -31.3227     1.2730    -1.5670    -0.0020    -0.0010    20.6267    41.2556     1.4351    14.6405    14.6392     0.0013   295.0000     9.8363     9.533
     32     0.8550     0.8550    -0.1450      5.660      2.000  22200.000      6.000    41.2537    86.5374   -31.4753     1.2730    -1.5670    -0.0020    -0.0010    20.6267    41.2556     1.4419    14.6405    14.6392     0.0013   295.0000     9.7832     9.482
     33     0.8600     0.8599    -0.1400      5.668      0.000  22200.000      6.000    41.2537    86.0896   -31.6288     1.2730    -1.5670    -0.0020    -0.0010    20.6267    41.2556     1.4487    14.6405    14.6392     0.0013   295.0000     9.7882     9.568
     34     0.8650     0.8650    -0.1350      5.649      1.000  22200.000      6.000    41.2537    85.6427   -31.7853     1.2730    -1.5670    -0.0020    -0.0010    20.6267    41.2556     1.4557    14.6405    14.6392     0.0013   295.0000     9.7882     9.568
     35     0.8700     0.8699    -0.1300      5.640      1.000  22200.000      6.000    41.2537    85.1969   -31.9418     1.2730    -1.5670    -0.0020    -0.0010    20.6267    41.2556     1.4627    14.6405    14.6392     0.0013   295.0000     9.8377     9.552
     36     0.8750     0.8750    -0.1250      5.590      1.000  22200.000      6.000    41.2537    84.7579   -32.1022     1.2730    -1.5670    -0.0020    -0.0010    20.6267    41.2556     1.4699    14.6405    14.6392     0.0013   295.0000     9.7891     9.559
     37     0.8800     0.8800    -0.1200      5.742      4.000  22200.000      6.000    41.2537    84.3189   -32.2617     1.2730    -1.5670    -0.0020    -0.0010    20.6267    41.2556     1.4770    14.6405    14.6392     0.0013   295.0000     9.7917     9.511
     38     0.8850     0.8849    -0.1150      5.655      2.000  22200.000      6.000    41.2537    83.8839   -32.4221     1.2730    -1.5670    -0.0020    -0.0010    20.6267    41.2556     1.4841    14.6405    14.6392     0.0013   295.0000     9.7917     9.511
     39     0.8900     0.8900    -0.1100      5.728      1.000  22200.000      6.000    41.2537    83.4478   -32.5855     1.2730    -1.5670    -0.0020    -0.0010    20.6267    41.2556     1.4914    14.6405    14.6392     0.0013   295.0000     9.7942     9.557
     40     0.8951     0.8950    -0.1051      5.616      1.000  22200.000      6.000    41.2537    83.0217   -32.7509     1.2730    -1.5670    -0.0020    -0.0010    20.6267    41.2556     1.4988    14.6405    14.6392     0.0013   295.0000     9.7891     9.491
     41     0.9000     0.8999    -0.1000      5.670      0.000  22200.000      6.000    41.2537    82.5925   -32.9143     1.2730    -1.5670    -0.0020    -0.0010    20.6267    41.2556     1.5060    14.6405    14.6392     0.0013   295.0000     9.7882     9.559
     42     0.9050     0.9050    -0.0950      5.618      1.000  22200.000      6.000    41.2537    82.1673   -33.0816     1.2730    -1.5670    -0.0020    -0.0010    20.6267    41.2556     1.5135    14.6405    14.6392     0.0013   295.0000     9.7882     9.559
     43     0.9101     0.9100    -0.0900      5.611      0.000  22200.000      6.000    41.2537    81.7441   -33.2499     1.2730    -1.5670    -0.0020    -0.0010    20.6267    41.2556     1.5210    14.6405    14.6392     0.0013   295.0000     9.8412     9.565
     44     0.9150     0.9150    -0.0850      5.601      1.000  22200.000      6.000    41.2537    81.3268   -33.4182     1.2730    -1.5670    -0.0020    -0.0010    20.6267    41.2556     1.5284    14.6405    14.6392     0.0013   295.0000     9.7810     9.530
     45     0.9200     0.9200    -0.0800      5.603      0.000  22200.000      6.000    41.2537    80.9094   -33.5885     1.2730    -1.5670    -0.0020    -0.0010    20.6267    41.2556     1.5360    14.6405    14.6392     0.0013   295.0000     9.7987     9.595
     46     0.9250     0.9250    -0.0750      5.664      0.000  22200.000      6.000    41.2537    80.4931   -33.7607     1.2730    -1.5670    -0.0020    -0.0010    20.6267    41.2556     1.5436    14.6405    14.6392     0.0013   295.0000     9.7987     9.595
     47     0.9300     0.9299    -0.0700      5.543      1.000  22200.000      6.000    41.2537    80.0846   -33.9310     1.2730    -1.5670    -0.0020    -0.0010    20.6267    41.2556     1.5512    14.6405    14.6392     0.0013   295.0000     9.7987     9.554
     48     0.9350     0.9350    -0.0650      5.649      0.000  22200.000      6.000    41.2537    79.6762   -34.1072     1.2730    -1.5670    -0.0020    -0.0010    20.6267    41.2556     1.5590    14.6405    14.6392     0.0013   295.0000     9.7986     9.498
     49     0.9400     0.9400    -0.0600      5.612      0.000  22200.000      6.000    41.2537    79.2677   -34.2824     1.2730    -1.5670    -0.0020    -0.0010    20.6267    41.2556     1.5668    14.6405    14.6392     0.0013   295.0000     9.8039     9.580
     50     0.9451     0.9450    -0.0550      5.630      1.000  22200.000      6.000    41.2537    78.8671   -34.4595     1.2730    -1.5670    -0.0020    -0.0010    20.6267    41.2556     1.5746    14.6405    14.6392     0.0013   295.0000     9.8039     9.580
     51     0.9501     0.9500    -0.0500      5.656      1.000  22200.000      6.000    41.2537    78.4646   -34.6367     1.2730    -1.5670    -0.0020    -0.0010    20.6267    41.2556     1.5825    14.6405    14.6392     0.0013   295.0000     9.8077     9.575
     52     0.9550     0.9549    -0.0450      5.592      3.000  22200.000      6.000    41.2537    78.0669   -34.8139     1.2730    -1.5670    -0.0020    -0.0010    20.6267    41.2556     1.5903    14.6405    14.6392     0.0013   295.0000     9.8099     9.566
     53     0.9600     0.9599    -0.0400      5.596      2.000  22200.000      6.000    41.2537    77.6693   -34.9940     1.2730    -1.5670    -0.0020    -0.0010    20.6267    41.2556     1.5983    14.6405    14.6392     0.0013   295.0000     9.8112     9.594
     54     0.9651     0.9650    -0.0350      5.673      1.000  22200.000      6.000    41.2537    77.2756   -35.1761     1.2730    -1.5670    -0.0020    -0.0010    20.6267    41.2556     1.6064    14.6405    14.6392     0.0013   295.0000     9.8112     9.594
     55     0.9700     0.9700    -0.0301      5.619      2.000  22200.000      6.000    41.2537    76.8888   -35.3572     1.2730    -1.5670    -0.0020    -0.0010    20.6267    41.2556     1.6144    14.6405    14.6392     0.0013   295.0000     9.8475     9.573
     56     0.9750     0.9749    -0.0250      5.673      0.000  22200.000      6.000    41.2537    76.4951   -35.5393     1.2730    -1.5670    -0.0020    -0.0010    20.6267    41.2556     1.6224    14.6405    14.6392     0.0013   295.0000     9.8077     9.511
     57     0.9801     0.9800    -0.0200      5.662      0.000  22200.000      6.000    41.2537    76.1102   -35.7263     1.2730    -1.5670    -0.0020    -0.0010    20.6267    41.2556     1.6307    14.6405    14.6392     0.0013   295.0000     9.8137     9.602
     58     0.9850     0.9849    -0.0150      5.590      1.000  22200.000      6.000    41.2537    75.7274   -35.9083     1.2730    -1.5670    -0.0020    -0.0010    20.6267    41.2556     1.6387    14.6405    14.6392     0.0013   295.0000     9.8137     9.602
     59     0.9900     0.9899    -0.0100      5.613     11.000  22200.000      6.000    41.2537    75.3465   -36.0954     1.2730    -1.5670    -0.0020    -0.0010    20.6267    41.2556     1.6470    14.6405    14.6392     0.0013   295.0000     9.8184     9.572
     60     0.9950     0.9950    -0.0050      5.587    158.000  22200.000      6.000    41.2537    74.9675   -36.2833     1.2730    -1.5670    -0.0020    -0.0010    20.6267    41.2556     1.6552    14.6405    14.6392     0.0013   295.0000     9.8233     9.573
     61     1.0000     1.0000     0.0000      5.627   1521.000  22200.000      6.000    41.2537    74.5886   -36.4713     1.2730    -1.5670    -0.0020    -0.0010    20.6267    41.2556     1.6635    14.6405    14.6392     0.0013   295.0000     9.8261     9.550
     62     1.0051     1.0050     0.0050      5.590    208.000  22200.000      6.000    41.2537    74.2156   -36.6613     1.2730    -1.5670    -0.0020    -0.0010    20.6267    41.2556     1.6719    14.6405    14.6392     0.0013   295.0000     9.8261     9.550
     63     1.0100     1.0099     0.0099      5.588      4.000  22200.000      6.000    41.2537    73.8465   -36.8493     1.2730    -1.5670    -0.0020    -0.0010    20.6267    41.2556     1.6802    14.6405    14.6392     0.0013   295.0000     9.8289     9.589
     64     1.0150     1.0149     0.0150      5.557      0.000  22200.000      6.000    41.2537    73.4724   -37.0412     1.2730    -1.5670    -0.0020    -0.0010    20.6267    41.2556     1.6886    14.6405    14.6392     0.0013   295.0000     9.8233     9.522
     65     1.0201     1.0200     0.0200      5.608      1.000  22200.000      6.000    41.2537    73.1063   -37.2361     1.2730    -1.5670    -0.0020    -0.0010    20.6267    41.2556     1.6972    14.6405    14.6392     0.0013   295.0000     9.8274     9.601
     66     1.0250     1.0249     0.0250      5.547      0.000  22200.000      6.000    41.2537    72.7402   -37.4261     1.2730    -1.5670    -0.0020    -0.0010    20.6267    41.2556     1.7055    14.6405    14.6392     0.0013   295.0000     9.8274     9.601
     67     1.0301     1.0300     0.0300      5.694      1.000  22200.000      6.000    41.2537    72.3760   -37.6229     1.2730    -1.5670    -0.0020    -0.0010    20.6267    41.2556     1.7142    14.6405    14.6392     0.0013   295.0000     9.8287     9.526
     68     1.0350     1.0349     0.0350      5.646      1.000  22200.000      6.000    41.2537    72.0157   -37.8158     1.2730    -1.5670    -0.0020    -0.0010    20.6267    41.2556     1.7227    14.6405    14.6392     0.0013   295.0000     9.8285     9.579
     69     1.0400     1.0399     0.0400      5.611      1.000  22200.000      6.000    41.2537    71.6555   -38.0127     1.2730    -1.5670    -0.0020    -0.0010    20.6267    41.2556     1.7313    14.6405    14.6392     0.0013   295.0000     9.8314     9.614
     70     1.0451     1.0450     0.0450      5.705      0.000  22200.000      6.000    41.2537    71.2992   -38.2105     1.2730    -1.5670    -0.0020    -0.0010    20.6267    41.2556     1.7400    14.6405    14.6392     0.0013   295.0000     9.8314     9.614
     71     1.0500     1.0499     0.0500      5.600      0.000  22200.000      6.000    41.2537    70.9478   -38.4064     1.2730    -1.5670    -0.0020    -0.0010    20.6267    41.2556     1.7486    14.6405    14.6392     0.0013   295.0000     9.8466     9.572
