# scan = 334
# date = 11/11/2003
# time = 3:14:13 AM
# experiment = TbPtIn single crystal;  100 plane
# experiment_number = 41
# command = scan h .47 .53 .0025 k .47 .53 .0025 l .47 .53 .0025 preset mcu 5
# builtin_command = scan h .47 .53 .0025 k .47 .53 .0025 l .47 .53 .0025 preset mcu 5
# users = O.Garlea, C.Stassis, J.L.Zarestky
# local_contact = J.L.Zarestky
# scan_title = hhh (.5,.5,.5) field dependence: base Temp, H = 0 T down
# monochromator = PG002
# analyzer = Pg002
# sense = +-+
# collimation = 48-40-40-102
# samplename = TbPtIn
# sampletype = crystal
# samplemosaic = 30.000000
# latticeconstants = 7.554053,7.554053,3.846679,90.000000,90.000000,120.000000
# ubmatrix = -0.005362,-0.005623,0.259740,-0.129577,-0.134798,-0.010795,0.080912,-0.071857,-0.000073
# mode = 0
# plane_normal = 0.001702,0.034158,0.999415
# ubconf = C:\User\exp41\UBConf\UB10Nov2003_64050PM.ini
# preset_type = normal 
# preset_channel = mcu
# preset_value = 5.000000
# def_x = h
# def_y = detector
# col_headers = 
#   Pt.          h          k          l       time   detector    monitor        mcu         m2         s1         s2        sgl        sgu        stl        stu         a1         a2          q         ei         ef          e       temp    coldtip    tsample
      1     0.4700     0.4701     0.4700      4.638     14.000  18500.000      5.000    41.2537    35.9980   -23.7922    -0.0975     1.9545     1.0050    -3.9990    20.6267    41.2566     1.0958    14.6405    14.6385     0.0020   295.0000     4.2259     4.258
      2     0.4724     0.4725     0.4725      4.709     16.000  18500.000      5.000    41.2537    35.9331   -23.9162    -0.0975     1.9545     1.0050    -3.9990    20.6267    41.2566     1.1015    14.6405    14.6385     0.0020   295.0000     4.2259     4.258
      3     0.4750     0.4751     0.4750      4.591     16.000  18500.000      5.000    41.2537    35.8691   -24.0481    -0.0975     1.9545     1.0050    -3.9990    20.6267    41.2566     1.1074    14.6405    14.6385     0.0020   295.0000     4.2286     4.265
      4     0.4774     0.4775     0.4775      4.611     13.000  18500.000      5.000    41.2537    35.8051   -24.1751    -0.0975     1.9545     1.0050    -3.9990    20.6267    41.2566     1.1132    14.6405    14.6385     0.0020   295.0000     4.2317     4.264
      5     0.4799     0.4800     0.4800      4.660     17.000  18500.000      5.000    41.2537    35.7402   -24.3040    -0.0975     1.9545     1.0050    -3.9990    20.6267    41.2566     1.1190    14.6405    14.6385     0.0020   295.0000     4.2317     4.264
      6     0.4825     0.4826     0.4825      4.686     24.000  18500.000      5.000    41.2537    35.6762   -24.4339    -0.0975     1.9545     1.0050    -3.9990    20.6267    41.2566     1.1249    14.6405    14.6385     0.0020   295.0000     4.2275     4.261
      7     0.4850     0.4851     0.4850      4.646    102.000  18500.000      5.000    41.2537    35.6112   -24.5619    -0.0975     1.9545     1.0050    -3.9990    20.6267    41.2566     1.1307    14.6405    14.6385     0.0020   295.0000     4.2277     4.276
      8     0.4875     0.4875     0.4875      4.633    400.000  18500.000      5.000    41.2537    35.5482   -24.6898    -0.0975     1.9545     1.0050    -3.9990    20.6267    41.2566     1.1365    14.6405    14.6385     0.0020   295.0000     4.2277     4.276
      9     0.4899     0.4900     0.4900      4.634    915.000  18500.000      5.000    41.2537    35.4833   -24.8178    -0.0975     1.9545     1.0050    -3.9990    20.6267    41.2566     1.1423    14.6405    14.6385     0.0020   295.0000     4.2255     4.260
     10     0.4925     0.4926     0.4925      4.579   1169.000  18500.000      5.000    41.2537    35.4183   -24.9477    -0.0975     1.9545     1.0050    -3.9990    20.6267    41.2566     1.1482    14.6405    14.6385     0.0020   295.0000     4.2255     4.260
     11     0.4949     0.4950     0.4950      4.606   1643.000  18500.000      5.000    41.2537    35.3553   -25.0747    -0.0975     1.9545     1.0050    -3.9990    20.6267    41.2566     1.1540    14.6405    14.6385     0.0020   295.0000     4.2281     4.262
     12     0.4975     0.4976     0.4975      4.640   2776.000  18500.000      5.000    41.2537    35.2894   -25.2056    -0.0975     1.9545     1.0050    -3.9990    20.6267    41.2566     1.1599    14.6405    14.6385     0.0020   295.0000     4.2262     4.264
     13     0.5000     0.5001     0.5000      4.588   3938.000  18500.000      5.000    41.2537    35.2274   -25.3335    -0.0975     1.9545     1.0050    -3.9990    20.6267    41.2566     1.1657    14.6405    14.6385     0.0020   295.0000     4.2262     4.264
     14     0.5025     0.5026     0.5025      4.584   3724.000  18500.000      5.000    41.2537    35.1624   -25.4625    -0.0975     1.9545     1.0050    -3.9990    20.6267    41.2566     1.1715    14.6405    14.6385     0.0020   295.0000     4.2349     4.261
     15     0.5049     0.5050     0.5050      4.552   2301.000  18500.000      5.000    41.2537    35.0984   -25.5904    -0.0975     1.9545     1.0050    -3.9990    20.6267    41.2566     1.1773    14.6405    14.6385     0.0020   295.0000     4.2277     4.262
     16     0.5075     0.5076     0.5075      4.679    966.000  18500.000      5.000    41.2537    35.0335   -25.7204    -0.0975     1.9545     1.0050    -3.9990    20.6267    41.2566     1.1832    14.6405    14.6385     0.0020   295.0000     4.2277     4.262
     17     0.5099     0.5100     0.5100      4.683    385.000  18500.000      5.000    41.2537    34.9685   -25.8483    -0.0975     1.9545     1.0050    -3.9990    20.6267    41.2566     1.1890    14.6405    14.6385     0.0020   295.0000     4.2299     4.259
     18     0.5124     0.5125     0.5125      4.611    230.000  18500.000      5.000    41.2537    34.9055   -25.9763    -0.0975     1.9545     1.0050    -3.9990    20.6267    41.2566     1.1948    14.6405    14.6385     0.0020   295.0000     4.2294     4.263
     19     0.5150     0.5151     0.5150      4.647    109.000  18500.000      5.000    41.2537    34.8406   -26.1082    -0.0975     1.9545     1.0050    -3.9990    20.6267    41.2566     1.2007    14.6405    14.6385     0.0020   295.0000     4.2294     4.263
     20     0.5174     0.5175     0.5175      4.673     23.000  18500.000      5.000    41.2537    34.7756   -26.2351    -0.0975     1.9545     1.0050    -3.9990    20.6267    41.2566     1.2065    14.6405    14.6385     0.0020   295.0000     4.2265     4.264
     21     0.5200     0.5201     0.5200      4.599     14.000  18500.000      5.000    41.2537    34.7106   -26.3650    -0.0975     1.9545     1.0050    -3.9990    20.6267    41.2566     1.2123    14.6405    14.6385     0.0020   295.0000     4.2286     4.261
     22     0.5224     0.5225     0.5225      4.602     16.000  18500.000      5.000    41.2537    34.6467   -26.4910    -0.0975     1.9545     1.0050    -3.9990    20.6267    41.2566     1.2180    14.6405    14.6385     0.0020   295.0000     4.2286     4.261
     23     0.5250     0.5251     0.5250      4.617     15.000  18500.000      5.000    41.2537    34.5817   -26.6239    -0.0975     1.9545     1.0050    -3.9990    20.6267    41.2566     1.2240    14.6405    14.6385     0.0020   295.0000     4.2283     4.264
     24     0.5275     0.5276     0.5275      4.549     13.000  18500.000      5.000    41.2537    34.5167   -26.7528    -0.0975     1.9545     1.0050    -3.9990    20.6267    41.2566     1.2298    14.6405    14.6385     0.0020   295.0000     4.2283     4.264
     25     0.5299     0.5300     0.5300      4.620     12.000  18500.000      5.000    41.2537    34.4528   -26.8808    -0.0975     1.9545     1.0050    -3.9990    20.6267    41.2566     1.2356    14.6405    14.6385     0.0020   295.0000     4.2258     4.259
# Sum of Counts = 18851
# Center of Mass = 0.499792+/-0.005148
# Full Width Half-Maximum = 0.011658+/-0.002317
# 3:17:34 AM  11/11/2003   scan completed.
