# scan = 108
# date = 11/9/2003
# time = 5:23:07 PM
# experiment = TbPtIn single crystal;  100 plane
# experiment_number = 41
# command = scan h .45 .55 .0025 k .45 .55 .0025 l .45 .55 .0025 preset mcu 10
# builtin_command = scan h .45 .55 .0025 k .45 .55 .0025 l .45 .55 .0025 preset mcu 10
# users = O.Garlea, C.Stassis, J.L.Zarestky
# local_contact = J.L.Zarestky
# scan_title = hhh order parameter UP T = 46.0000
# monochromator = PG002
# analyzer = Pg002
# sense = +-+
# collimation = 48-40-40-102
# samplename = TbPtIn
# sampletype = crystal
# samplemosaic = 30.000000
# latticeconstants = 7.554017,7.554017,3.847681,90.000000,90.000000,120.000000
# ubmatrix = -0.008230,-0.004834,0.259516,-0.134256,-0.130074,-0.012979,0.072618,-0.080146,0.005414
# mode = 0
# plane_normal = -0.022217,-0.027363,0.999379
# ubconf = C:\User\exp41\UBConf\UB08Nov2003_100555PM.ini
# preset_type = normal 
# preset_channel = mcu
# preset_value = 10.000000
# def_x = h
# def_y = detector
# col_headers = 
#   Pt.          h          k          l       time   detector    monitor        mcu         m2         s1         s2        sgl        sgu        stl        stu         a1         a2          q         ei         ef          e       temp    coldtip    tsample
      1     0.4500     0.4500     0.4500      9.398      2.000  37000.000     10.000    41.2537    36.9724   -22.7617     1.2730    -1.5670    -0.0020    -0.0010    20.6267    41.2556     1.0490    14.6405    14.6392     0.0013    46.0000    45.9000    52.909
      2     0.4525     0.4525     0.4525      9.367      2.000  37000.000     10.000    41.2537    36.9094   -22.8887     1.2730    -1.5670    -0.0020    -0.0010    20.6267    41.2556     1.0548    14.6405    14.6392     0.0013    46.0000    45.8960    48.748
      3     0.4550     0.4550     0.4550      9.419      5.000  37000.000     10.000    41.2537    36.8455   -23.0166     1.2730    -1.5670    -0.0020    -0.0010    20.6267    41.2556     1.0606    14.6405    14.6392     0.0013    46.0000    45.9920    50.948
      4     0.4575     0.4575     0.4575      9.300      2.000  37000.000     10.000    41.2537    36.7805   -23.1465     1.2730    -1.5670    -0.0020    -0.0010    20.6267    41.2556     1.0665    14.6405    14.6392     0.0013    46.0000    46.0110    50.468
      5     0.4600     0.4600     0.4600      9.308      2.000  37000.000     10.000    41.2537    36.7185   -23.2725     1.2730    -1.5670    -0.0020    -0.0010    20.6267    41.2556     1.0722    14.6405    14.6392     0.0013    46.0000    46.0210    49.617
      6     0.4625     0.4625     0.4625      9.385      5.000  37000.000     10.000    41.2537    36.6526   -23.4015     1.2730    -1.5670    -0.0020    -0.0010    20.6267    41.2556     1.0781    14.6405    14.6392     0.0013    46.0000    46.0460    50.640
      7     0.4651     0.4650     0.4650      9.362      5.000  37000.000     10.000    41.2537    36.5886   -23.5324     1.2730    -1.5670    -0.0020    -0.0010    20.6267    41.2556     1.0840    14.6405    14.6392     0.0013    46.0000    46.0420    49.719
      8     0.4676     0.4675     0.4675      9.356      5.000  37000.000     10.000    41.2537    36.5236   -23.6613     1.2730    -1.5670    -0.0020    -0.0010    20.6267    41.2556     1.0899    14.6405    14.6392     0.0013    46.0000    46.0730    51.609
      9     0.4700     0.4700     0.4700      9.464      7.000  37000.000     10.000    41.2537    36.4606   -23.7863     1.2730    -1.5670    -0.0020    -0.0010    20.6267    41.2556     1.0956    14.6405    14.6392     0.0013    46.0000    46.0590    48.968
     10     0.4725     0.4725     0.4725      9.381      3.000  37000.000     10.000    41.2537    36.3976   -23.9143     1.2730    -1.5670    -0.0020    -0.0010    20.6267    41.2556     1.1014    14.6405    14.6392     0.0013    46.0000    46.0190    49.997
     11     0.4750     0.4750     0.4750      9.488      2.000  37000.000     10.000    41.2537    36.3327   -24.0442     1.2730    -1.5670    -0.0020    -0.0010    20.6267    41.2556     1.1073    14.6405    14.6392     0.0013    46.0000    46.0130    50.688
     12     0.4775     0.4775     0.4775      9.324      3.000  37000.000     10.000    41.2537    36.2677   -24.1731     1.2730    -1.5670    -0.0020    -0.0010    20.6267    41.2556     1.1131    14.6405    14.6392     0.0013    46.0000    46.0040    52.125
     13     0.4800     0.4800     0.4800      9.413      5.000  37000.000     10.000    41.2537    36.2037   -24.3001     1.2730    -1.5670    -0.0020    -0.0010    20.6267    41.2556     1.1189    14.6405    14.6392     0.0013    46.0000    45.9890    53.912
     14     0.4825     0.4825     0.4825      9.284      8.000  37000.000     10.000    41.2537    36.1398   -24.4300     1.2730    -1.5670    -0.0020    -0.0010    20.6267    41.2556     1.1248    14.6405    14.6392     0.0013    46.0000    45.9390    50.941
     15     0.4850     0.4850     0.4850      9.351      6.000  37000.000     10.000    41.2537    36.0758   -24.5580     1.2730    -1.5670    -0.0020    -0.0010    20.6267    41.2556     1.1306    14.6405    14.6392     0.0013    46.0000    45.9350    51.020
     16     0.4875     0.4875     0.4875      9.418      7.000  37000.000     10.000    41.2537    36.0108   -24.6869     1.2730    -1.5670    -0.0020    -0.0010    20.6267    41.2556     1.1364    14.6405    14.6392     0.0013    46.0000    45.9410    51.995
     17     0.4900     0.4900     0.4900      9.380      7.000  37000.000     10.000    41.2537    35.9469   -24.8139     1.2730    -1.5670    -0.0020    -0.0010    20.6267    41.2556     1.1422    14.6405    14.6392     0.0013    46.0000    45.9370    52.353
     18     0.4925     0.4924     0.4925      9.337      7.000  37000.000     10.000    41.2537    35.8819   -24.9418     1.2730    -1.5670    -0.0020    -0.0010    20.6267    41.2556     1.1480    14.6405    14.6392     0.0013    46.0000    45.9370    52.748
     19     0.4950     0.4950     0.4950      9.392      9.000  37000.000     10.000    41.2537    35.8179   -25.0727     1.2730    -1.5670    -0.0020    -0.0010    20.6267    41.2556     1.1539    14.6405    14.6392     0.0013    46.0000    45.9420    51.783
     20     0.4976     0.4975     0.4975      9.299      4.000  37000.000     10.000    41.2537    35.7539   -25.2026     1.2730    -1.5670    -0.0020    -0.0010    20.6267    41.2556     1.1598    14.6405    14.6392     0.0013    46.0000    45.9640    52.145
     21     0.5000     0.5000     0.5000      9.366     10.000  37000.000     10.000    41.2537    35.6890   -25.3296     1.2730    -1.5670    -0.0020    -0.0010    20.6267    41.2556     1.1655    14.6405    14.6392     0.0013    46.0000    45.9830    53.425
     22     0.5025     0.5025     0.5025      9.374      4.000  37000.000     10.000    41.2537    35.6250   -25.4585     1.2730    -1.5670    -0.0020    -0.0010    20.6267    41.2556     1.1714    14.6405    14.6392     0.0013    46.0000    45.9760    51.371
     23     0.5050     0.5050     0.5050      9.330      7.000  37000.000     10.000    41.2537    35.5610   -25.5875     1.2730    -1.5670    -0.0020    -0.0010    20.6267    41.2556     1.1772    14.6405    14.6392     0.0013    46.0000    46.0310    54.010
     24     0.5075     0.5075     0.5075      9.369      6.000  37000.000     10.000    41.2537    35.4970   -25.7154     1.2730    -1.5670    -0.0020    -0.0010    20.6267    41.2556     1.1830    14.6405    14.6392     0.0013    46.0000    46.0000    51.396
     25     0.5100     0.5099     0.5100      9.289      3.000  37000.000     10.000    41.2537    35.4321   -25.8434     1.2730    -1.5670    -0.0020    -0.0010    20.6267    41.2556     1.1888    14.6405    14.6392     0.0013    46.0000    46.0000    52.661
     26     0.5125     0.5125     0.5125      9.352      5.000  37000.000     10.000    41.2537    35.3671   -25.9733     1.2730    -1.5670    -0.0020    -0.0010    20.6267    41.2556     1.1946    14.6405    14.6392     0.0013    46.0000    45.9990    52.488
     27     0.5150     0.5150     0.5150      9.323      4.000  37000.000     10.000    41.2537    35.3031   -26.1022     1.2730    -1.5670    -0.0020    -0.0010    20.6267    41.2556     1.2005    14.6405    14.6392     0.0013    46.0000    45.9970    51.701
     28     0.5175     0.5175     0.5175      9.435      5.000  37000.000     10.000    41.2537    35.2382   -26.2332     1.2730    -1.5670    -0.0020    -0.0010    20.6267    41.2556     1.2064    14.6405    14.6392     0.0013    46.0000    46.0100    53.820
     29     0.5200     0.5200     0.5200      9.434      3.000  37000.000     10.000    41.2537    35.1752   -26.3601     1.2730    -1.5670    -0.0020    -0.0010    20.6267    41.2556     1.2121    14.6405    14.6392     0.0013    46.0000    46.0040    52.492
     30     0.5225     0.5225     0.5225      9.410      4.000  37000.000     10.000    41.2537    35.1093   -26.4891     1.2730    -1.5670    -0.0020    -0.0010    20.6267    41.2556     1.2179    14.6405    14.6392     0.0013    46.0000    45.9990    53.541
     31     0.5250     0.5250     0.5250      9.346      3.000  37000.000     10.000    41.2537    35.0463   -26.6190     1.2730    -1.5670    -0.0020    -0.0010    20.6267    41.2556     1.2238    14.6405    14.6392     0.0013    46.0000    45.9660    51.429
     32     0.5275     0.5275     0.5275      9.387      2.000  37000.000     10.000    41.2537    34.9803   -26.7489     1.2730    -1.5670    -0.0020    -0.0010    20.6267    41.2556     1.2297    14.6405    14.6392     0.0013    46.0000    45.9580    51.653
     33     0.5300     0.5300     0.5300      9.269      2.000  37000.000     10.000    41.2537    34.9163   -26.8769     1.2730    -1.5670    -0.0020    -0.0010    20.6267    41.2556     1.2355    14.6405    14.6392     0.0013    46.0000    45.9640    53.165
     34     0.5325     0.5325     0.5325      9.312      2.000  37000.000     10.000    41.2537    34.8524   -27.0058     1.2730    -1.5670    -0.0020    -0.0010    20.6267    41.2556     1.2413    14.6405    14.6392     0.0013    46.0000    45.9620    51.988
     35     0.5350     0.5350     0.5350      9.396      3.000  37000.000     10.000    41.2537    34.7874   -27.1357     1.2730    -1.5670    -0.0020    -0.0010    20.6267    41.2556     1.2471    14.6405    14.6392     0.0013    46.0000    45.9660    52.073
     36     0.5375     0.5375     0.5375      9.408      5.000  37000.000     10.000    41.2537    34.7215   -27.2646     1.2730    -1.5670    -0.0020    -0.0010    20.6267    41.2556     1.2529    14.6405    14.6392     0.0013    46.0000    45.9730    51.655
     37     0.5400     0.5400     0.5400      9.286      3.000  37000.000     10.000    41.2537    34.6575   -27.3946     1.2730    -1.5670    -0.0020    -0.0010    20.6267    41.2556     1.2588    14.6405    14.6392     0.0013    46.0000    45.9790    51.602
     38     0.5425     0.5425     0.5425      9.313      2.000  37000.000     10.000    41.2537    34.5935   -27.5235     1.2730    -1.5670    -0.0020    -0.0010    20.6267    41.2556     1.2646    14.6405    14.6392     0.0013    46.0000    46.0010    52.468
     39     0.5450     0.5450     0.5450      9.283      4.000  37000.000     10.000    41.2537    34.5285   -27.6534     1.2730    -1.5670    -0.0020    -0.0010    20.6267    41.2556     1.2705    14.6405    14.6392     0.0013    46.0000    45.9970    52.057
     40     0.5475     0.5475     0.5475      9.345      6.000  37000.000     10.000    41.2537    34.4636   -27.7824     1.2730    -1.5670    -0.0020    -0.0010    20.6267    41.2556     1.2763    14.6405    14.6392     0.0013    46.0000    46.0070    51.766
     41     0.5500     0.5500     0.5500      9.407      3.000  37000.000     10.000    41.2537    34.3986   -27.9113     1.2730    -1.5670    -0.0020    -0.0010    20.6267    41.2556     1.2821    14.6405    14.6392     0.0013    46.0000    46.0130    52.370
# Sum of Counts = 182
# Center of Mass = 0.498538+/-0.052298
# Full Width Half-Maximum = 0.052798+/-0.016269
# 5:31:01 PM  11/9/2003   scan completed.
