# scan = 161
# date = 11/9/2003
# time = 11:38:51 PM
# experiment = TbPtIn single crystal;  100 plane
# experiment_number = 41
# command = scan h 0 k 0 l 1.94 2.06 .005 preset 2
# builtin_command = scan h 0 k 0 l 1.94 2.06 .005 preset 2
# users = O.Garlea, C.Stassis, J.L.Zarestky
# local_contact = J.L.Zarestky
# scan_title = 002 order parameter DN T = 37.0000
# monochromator = PG002
# analyzer = Pg002
# sense = +-+
# collimation = 48-40-40-102
# samplename = TbPtIn
# sampletype = crystal
# samplemosaic = 30.000000
# latticeconstants = 7.554017,7.554017,3.847681,90.000000,90.000000,120.000000
# ubmatrix = -0.008230,-0.004834,0.259516,-0.134256,-0.130074,-0.012979,0.072618,-0.080146,0.005414
# mode = 0
# plane_normal = -0.022217,-0.027363,0.999379
# ubconf = C:\User\exp41\UBConf\UB08Nov2003_100555PM.ini
# preset_type = normal 
# preset_channel = mcu
# preset_value = 2.000000
# def_x = l
# def_y = detector
# col_headers = 
#   Pt.          h          k          l       time   detector    monitor        mcu         m2         s1         s2        sgl        sgu        stl        stu         a1         a2          q         ei         ef          e       temp    coldtip    tsample
      1     0.0000     0.0000     1.9400      1.871      2.000   7400.000      2.000    41.2537   -33.7520   -73.1583     1.2730    -1.5670    -0.0020    -0.0010    20.6267    41.2556     3.1680    14.6405    14.6392     0.0013    37.0000    36.8820    44.275
      2     0.0001     0.0001     1.9450      1.832      0.000   7400.000      2.000    41.2537   -33.8593   -73.3769     1.2730    -1.5670    -0.0020    -0.0010    20.6267    41.2556     3.1761    14.6405    14.6392     0.0013    37.0000    36.8820    44.275
      3    -0.0000    -0.0000     1.9500      1.836      0.000   7400.000      2.000    41.2537   -33.9715   -73.5954     1.2730    -1.5670    -0.0020    -0.0010    20.6267    41.2556     3.1843    14.6405    14.6392     0.0013    37.0000    36.8820    44.275
      4     0.0001     0.0001     1.9550      1.824      1.000   7400.000      2.000    41.2537   -34.0797   -73.8168     1.2730    -1.5670    -0.0020    -0.0010    20.6267    41.2556     3.1925    14.6405    14.6392     0.0013    37.0000    36.8490    44.074
      5     0.0000     0.0000     1.9600      1.837      2.000   7400.000      2.000    41.2537   -34.1909   -74.0363     1.2730    -1.5670    -0.0020    -0.0010    20.6267    41.2556     3.2006    14.6405    14.6392     0.0013    37.0000    36.8490    44.074
      6     0.0000     0.0000     1.9650      1.880      2.000   7400.000      2.000    41.2537   -34.3012   -74.2568     1.2730    -1.5670    -0.0020    -0.0010    20.6267    41.2556     3.2088    14.6405    14.6392     0.0013    37.0000    36.8500    44.869
      7    -0.0001    -0.0001     1.9700      1.870      4.000   7400.000      2.000    41.2537   -34.4134   -74.4763     1.2730    -1.5670    -0.0020    -0.0010    20.6267    41.2556     3.2169    14.6405    14.6392     0.0013    37.0000    36.8500    44.869
      8     0.0001     0.0001     1.9750      1.903     30.000   7400.000      2.000    41.2537   -34.5217   -74.7007     1.2730    -1.5670    -0.0020    -0.0010    20.6267    41.2556     3.2252    14.6405    14.6392     0.0013    37.0000    36.8500    44.869
      9    -0.0001    -0.0001     1.9800      1.897    217.000   7400.000      2.000    41.2537   -34.6348   -74.9192     1.2730    -1.5670    -0.0020    -0.0010    20.6267    41.2556     3.2332    14.6405    14.6392     0.0013    37.0000    36.8540    44.123
     10    -0.0000    -0.0000     1.9850      1.860    638.000   7400.000      2.000    41.2537   -34.7441   -75.1416     1.2730    -1.5670    -0.0020    -0.0010    20.6267    41.2556     3.2414    14.6405    14.6392     0.0013    37.0000    36.8540    44.123
     11     0.0000     0.0000     1.9900      1.889   1124.000   7400.000      2.000    41.2537   -34.8543   -75.3650     1.2730    -1.5670    -0.0020    -0.0010    20.6267    41.2556     3.2496    14.6405    14.6392     0.0013    37.0000    36.8540    44.123
     12     0.0000     0.0000     1.9950      1.893   1362.000   7400.000      2.000    41.2537   -34.9656   -75.5875     1.2730    -1.5670    -0.0020    -0.0010    20.6267    41.2556     3.2578    14.6405    14.6392     0.0013    37.0000    36.9050    45.808
     13    -0.0000    -0.0000     2.0000      1.855   1481.000   7400.000      2.000    41.2537   -35.0787   -75.8099     1.2730    -1.5670    -0.0020    -0.0010    20.6267    41.2556     3.2659    14.6405    14.6392     0.0013    37.0000    36.9050    45.808
     14     0.0000     0.0000     2.0050      1.888   1375.000   7400.000      2.000    41.2537   -35.1900   -76.0343     1.2730    -1.5670    -0.0020    -0.0010    20.6267    41.2556     3.2741    14.6405    14.6392     0.0013    37.0000    36.8850    39.551
     15     0.0001     0.0001     2.0101      1.900    935.000   7400.000      2.000    41.2537   -35.3012   -76.2597     1.2730    -1.5670    -0.0020    -0.0010    20.6267    41.2556     3.2824    14.6405    14.6392     0.0013    37.0000    36.8850    39.551
     16    -0.0001    -0.0001     2.0150      1.884    444.000   7400.000      2.000    41.2537   -35.4144   -76.4802     1.2730    -1.5670    -0.0020    -0.0010    20.6267    41.2556     3.2904    14.6405    14.6392     0.0013    37.0000    36.8850    39.551
     17     0.0000     0.0000     2.0200      1.849     95.000   7400.000      2.000    41.2537   -35.5246   -76.7056     1.2730    -1.5670    -0.0020    -0.0010    20.6267    41.2556     3.2986    14.6405    14.6392     0.0013    37.0000    36.9800    43.334
     18    -0.0001    -0.0001     2.0250      1.834      7.000   7400.000      2.000    41.2537   -35.6388   -76.9290     1.2730    -1.5670    -0.0020    -0.0010    20.6267    41.2556     3.3067    14.6405    14.6392     0.0013    37.0000    36.9800    43.334
     19     0.0000     0.0000     2.0300      1.834      1.000   7400.000      2.000    41.2537   -35.7490   -77.1554     1.2730    -1.5670    -0.0020    -0.0010    20.6267    41.2556     3.3150    14.6405    14.6392     0.0013    37.0000    37.0530    45.317
     20    -0.0000    -0.0000     2.0350      1.827      0.000   7400.000      2.000    41.2537   -35.8632   -77.3798     1.2730    -1.5670    -0.0020    -0.0010    20.6267    41.2556     3.3231    14.6405    14.6392     0.0013    37.0000    37.0530    45.317
     21     0.0000     0.0000     2.0400      1.843      0.000   7400.000      2.000    41.2537   -35.9754   -77.6052     1.2730    -1.5670    -0.0020    -0.0010    20.6267    41.2556     3.3313    14.6405    14.6392     0.0013    37.0000    37.0530    45.317
     22     0.0000     0.0000     2.0450      1.875      1.000   7400.000      2.000    41.2537   -36.0886   -77.8326     1.2730    -1.5670    -0.0020    -0.0010    20.6267    41.2556     3.3395    14.6405    14.6392     0.0013    37.0000    37.0690    44.375
     23     0.0000     0.0000     2.0500      1.879      3.000   7400.000      2.000    41.2537   -36.2018   -78.0580     1.2730    -1.5670    -0.0020    -0.0010    20.6267    41.2556     3.3476    14.6405    14.6392     0.0013    37.0000    37.0690    44.375
     24     0.0000     0.0000     2.0550      1.866      0.000   7400.000      2.000    41.2537   -36.3150   -78.2853     1.2730    -1.5670    -0.0020    -0.0010    20.6267    41.2556     3.3558    14.6405    14.6392     0.0013    37.0000    37.0690    44.375
     25    -0.0000    -0.0000     2.0600      1.857      0.000   7400.000      2.000    41.2537   -36.4301   -78.5127     1.2730    -1.5670    -0.0020    -0.0010    20.6267    41.2556     3.3640    14.6405    14.6392     0.0013    37.0000    37.0700    43.613
# Sum of Counts = 7724
# Center of Mass = 1.998982+/-0.032167
# Full Width Half-Maximum = 0.018882+/-0.018961
# 11:40:48 PM  11/9/2003   scan completed.
