# scan = 101
# date = 11/9/2003
# time = 4:44:07 PM
# experiment = TbPtIn single crystal;  100 plane
# experiment_number = 41
# command = scan h 0 k 0 l 1.94 2.06 .005 preset 2
# builtin_command = scan h 0 k 0 l 1.94 2.06 .005 preset 2
# users = O.Garlea, C.Stassis, J.L.Zarestky
# local_contact = J.L.Zarestky
# scan_title = 002 order parameter UP T = 43.0000
# monochromator = PG002
# analyzer = Pg002
# sense = +-+
# collimation = 48-40-40-102
# samplename = TbPtIn
# sampletype = crystal
# samplemosaic = 30.000000
# latticeconstants = 7.554017,7.554017,3.847681,90.000000,90.000000,120.000000
# ubmatrix = -0.008230,-0.004834,0.259516,-0.134256,-0.130074,-0.012979,0.072618,-0.080146,0.005414
# mode = 0
# plane_normal = -0.022217,-0.027363,0.999379
# ubconf = C:\User\exp41\UBConf\UB08Nov2003_100555PM.ini
# preset_type = normal 
# preset_channel = mcu
# preset_value = 2.000000
# def_x = l
# def_y = detector
# col_headers = 
#   Pt.          h          k          l       time   detector    monitor        mcu         m2         s1         s2        sgl        sgu        stl        stu         a1         a2          q         ei         ef          e       temp    coldtip    tsample
      1     0.0000     0.0000     1.9400      1.853      1.000   7400.000      2.000    41.2537   -33.7520   -73.1583     1.2730    -1.5670    -0.0020    -0.0010    20.6267    41.2556     3.1680    14.6405    14.6392     0.0013    43.0000    42.6660    48.538
      2     0.0000     0.0000     1.9450      1.878      0.000   7400.000      2.000    41.2537   -33.8602   -73.3759     1.2730    -1.5670    -0.0020    -0.0010    20.6267    41.2556     3.1761    14.6405    14.6392     0.0013    43.0000    42.6580    47.649
      3     0.0000     0.0000     1.9500      1.861      0.000   7400.000      2.000    41.2537   -33.9695   -73.5954     1.2730    -1.5670    -0.0020    -0.0010    20.6267    41.2556     3.1843    14.6405    14.6392     0.0013    43.0000    42.6580    47.649
      4     0.0000     0.0000     1.9550      1.888      0.000   7400.000      2.000    41.2537   -34.0807   -73.8158     1.2730    -1.5670    -0.0020    -0.0010    20.6267    41.2556     3.1925    14.6405    14.6392     0.0013    43.0000    42.6580    47.649
      5    -0.0000    -0.0000     1.9600      1.883      0.000   7400.000      2.000    41.2537   -34.1919   -74.0363     1.2730    -1.5670    -0.0020    -0.0010    20.6267    41.2556     3.2006    14.6405    14.6392     0.0013    43.0000    42.7640    52.143
      6     0.0000     0.0000     1.9650      1.885      3.000   7400.000      2.000    41.2537   -34.3002   -74.2568     1.2730    -1.5670    -0.0020    -0.0010    20.6267    41.2556     3.2088    14.6405    14.6392     0.0013    43.0000    42.7640    52.143
      7    -0.0000    -0.0000     1.9700      1.942      5.000   7400.000      2.000    41.2537   -34.4124   -74.4772     1.2730    -1.5670    -0.0020    -0.0010    20.6267    41.2556     3.2169    14.6405    14.6392     0.0013    43.0000    42.8190    50.318
      8     0.0000     0.0000     1.9750      1.933     39.000   7400.000      2.000    41.2537   -34.5226   -74.7007     1.2730    -1.5670    -0.0020    -0.0010    20.6267    41.2556     3.2252    14.6405    14.6392     0.0013    43.0000    42.8190    50.318
      9    -0.0000    -0.0000     1.9800      1.875    260.000   7400.000      2.000    41.2537   -34.6339   -74.9192     1.2730    -1.5670    -0.0020    -0.0010    20.6267    41.2556     3.2332    14.6405    14.6392     0.0013    43.0000    42.8190    50.318
     10     0.0000     0.0000     1.9850      1.858    678.000   7400.000      2.000    41.2537   -34.7431   -75.1426     1.2730    -1.5670    -0.0020    -0.0010    20.6267    41.2556     3.2415    14.6405    14.6392     0.0013    43.0000    42.8920    49.479
     11    -0.0000    -0.0000     1.9900      1.881   1092.000   7400.000      2.000    41.2537   -34.8553   -75.3641     1.2730    -1.5670    -0.0020    -0.0010    20.6267    41.2556     3.2496    14.6405    14.6392     0.0013    43.0000    42.8920    49.479
     12     0.0000     0.0000     1.9950      1.892   1342.000   7400.000      2.000    41.2537   -34.9656   -75.5875     1.2730    -1.5670    -0.0020    -0.0010    20.6267    41.2556     3.2578    14.6405    14.6392     0.0013    43.0000    42.8920    49.479
     13    -0.0000    -0.0000     2.0000      1.897   1477.000   7400.000      2.000    41.2537   -35.0787   -75.8099     1.2730    -1.5670    -0.0020    -0.0010    20.6267    41.2556     3.2659    14.6405    14.6392     0.0013    43.0000    43.0270    52.556
     14     0.0000     0.0000     2.0050      1.867   1315.000   7400.000      2.000    41.2537   -35.1900   -76.0343     1.2730    -1.5670    -0.0020    -0.0010    20.6267    41.2556     3.2741    14.6405    14.6392     0.0013    43.0000    43.0270    52.556
     15     0.0001     0.0001     2.0101      1.879    884.000   7400.000      2.000    41.2537   -35.3012   -76.2597     1.2730    -1.5670    -0.0020    -0.0010    20.6267    41.2556     3.2824    14.6405    14.6392     0.0013    43.0000    43.0660    49.613
     16    -0.0000    -0.0000     2.0150      1.839    412.000   7400.000      2.000    41.2537   -35.4134   -76.4802     1.2730    -1.5670    -0.0020    -0.0010    20.6267    41.2556     3.2904    14.6405    14.6392     0.0013    43.0000    43.0660    49.613
     17     0.0000     0.0000     2.0200      1.873     80.000   7400.000      2.000    41.2537   -35.5246   -76.7056     1.2730    -1.5670    -0.0020    -0.0010    20.6267    41.2556     3.2986    14.6405    14.6392     0.0013    43.0000    43.0660    49.613
     18    -0.0000    -0.0000     2.0250      1.882      6.000   7400.000      2.000    41.2537   -35.6378   -76.9290     1.2730    -1.5670    -0.0020    -0.0010    20.6267    41.2556     3.3067    14.6405    14.6392     0.0013    43.0000    43.0890    47.498
     19     0.0000     0.0000     2.0300      1.874      2.000   7400.000      2.000    41.2537   -35.7490   -77.1544     1.2730    -1.5670    -0.0020    -0.0010    20.6267    41.2556     3.3149    14.6405    14.6392     0.0013    43.0000    43.0890    47.498
     20     0.0000     0.0000     2.0350      1.895      0.000   7400.000      2.000    41.2537   -35.8622   -77.3798     1.2730    -1.5670    -0.0020    -0.0010    20.6267    41.2556     3.3231    14.6405    14.6392     0.0013    43.0000    43.0890    47.498
     21    -0.0000    -0.0000     2.0400      1.890      0.000   7400.000      2.000    41.2537   -35.9754   -77.6042     1.2730    -1.5670    -0.0020    -0.0010    20.6267    41.2556     3.3312    14.6405    14.6392     0.0013    43.0000    43.1770    50.510
     22     0.0000     0.0000     2.0450      1.894      0.000   7400.000      2.000    41.2537   -36.0886   -77.8335     1.2730    -1.5670    -0.0020    -0.0010    20.6267    41.2556     3.3395    14.6405    14.6392     0.0013    43.0000    43.1770    50.510
     23    -0.0000    -0.0000     2.0500      1.865      0.000   7400.000      2.000    41.2537   -36.2018   -78.0570     1.2730    -1.5670    -0.0020    -0.0010    20.6267    41.2556     3.3476    14.6405    14.6392     0.0013    43.0000    43.1720    50.006
     24     0.0000     0.0000     2.0550      1.912      2.000   7400.000      2.000    41.2537   -36.3150   -78.2843     1.2730    -1.5670    -0.0020    -0.0010    20.6267    41.2556     3.3557    14.6405    14.6392     0.0013    43.0000    43.1720    50.006
     25     0.0000     0.0000     2.0600      1.815      0.000   7400.000      2.000    41.2537   -36.4291   -78.5137     1.2730    -1.5670    -0.0020    -0.0010    20.6267    41.2556     3.3640    14.6405    14.6392     0.0013    43.0000    43.1720    50.006
# Sum of Counts = 7598
# Center of Mass = 1.998593+/-0.032426
# Full Width Half-Maximum = 0.018917+/-0.019100
# 4:46:04 PM  11/9/2003   scan completed.
