# scan = 255
# date = 11/10/2003
# time = 9:23:27 PM
# experiment = TbPtIn single crystal;  100 plane
# experiment_number = 41
# command = scan h 0 k 0 l 1.94 2.06 .005 preset 2
# builtin_command = scan h 0 k 0 l 1.94 2.06 .005 preset 2
# users = O.Garlea, C.Stassis, J.L.Zarestky
# local_contact = J.L.Zarestky
# scan_title = 002 field dependence: base Temp, H = 0.400000 T
# monochromator = PG002
# analyzer = Pg002
# sense = +-+
# collimation = 48-40-40-102
# samplename = TbPtIn
# sampletype = crystal
# samplemosaic = 30.000000
# latticeconstants = 7.554053,7.554053,3.846679,90.000000,90.000000,120.000000
# ubmatrix = -0.005362,-0.005623,0.259740,-0.129577,-0.134798,-0.010795,0.080912,-0.071857,-0.000073
# mode = 0
# plane_normal = 0.001702,0.034158,0.999415
# ubconf = C:\User\exp41\UBConf\UB10Nov2003_64050PM.ini
# preset_type = normal 
# preset_channel = mcu
# preset_value = 2.000000
# def_x = l
# def_y = detector
# col_headers = 
#   Pt.          h          k          l       time   detector    monitor        mcu         m2         s1         s2        sgl        sgu        stl        stu         a1         a2          q         ei         ef          e       temp    coldtip    tsample
      1     0.0001     0.0001     1.9400      1.851      0.000   7400.000      2.000    41.2537   -34.2116   -73.1820    -0.0975     1.9545     1.0040    -3.9990    20.6266    41.2566     3.1689    14.6405    14.6385     0.0020   295.0000     4.2360     5.385
      2    -0.0000    -0.0000     1.9450      1.876      1.000   7400.000      2.000    41.2537   -34.3248   -73.3985    -0.0975     1.9545     1.0040    -3.9990    20.6266    41.2566     3.1769    14.6405    14.6385     0.0020   295.0000     4.2344     5.386
      3     0.0000     0.0000     1.9500      1.834      1.000   7400.000      2.000    41.2537   -34.4341   -73.6190    -0.0975     1.9545     1.0040    -3.9990    20.6266    41.2566     3.1851    14.6405    14.6385     0.0020   295.0000     4.2344     5.386
      4    -0.0000    -0.0000     1.9550      1.859      1.000   7400.000      2.000    41.2537   -34.5453   -73.8395    -0.0975     1.9545     1.0040    -3.9990    20.6266    41.2566     3.1933    14.6405    14.6385     0.0020   295.0000     4.2364     5.383
      5    -0.0000     0.0000     1.9600      1.853      1.000   7400.000      2.000    41.2537   -34.6545   -74.0589    -0.0975     1.9545     1.0040    -3.9990    20.6266    41.2566     3.2014    14.6405    14.6385     0.0020   295.0000     4.2364     5.383
      6    -0.0000     0.0000     1.9650      1.853      1.000   7400.000      2.000    41.2537   -34.7657   -74.2814    -0.0975     1.9545     1.0040    -3.9990    20.6266    41.2566     3.2097    14.6405    14.6385     0.0020   295.0000     4.2364     5.383
      7     0.0000     0.0000     1.9700      1.879      2.000   7400.000      2.000    41.2537   -34.8750   -74.5009    -0.0975     1.9545     1.0040    -3.9990    20.6266    41.2566     3.2178    14.6405    14.6385     0.0020   295.0000     4.2293     5.371
      8     0.0000     0.0000     1.9750      1.848      5.000   7400.000      2.000    41.2537   -34.9862   -74.7233    -0.0975     1.9545     1.0040    -3.9990    20.6266    41.2566     3.2260    14.6405    14.6385     0.0020   295.0000     4.2293     5.371
      9    -0.0000     0.0000     1.9800      1.843     28.000   7400.000      2.000    41.2537   -35.0965   -74.9428    -0.0975     1.9545     1.0040    -3.9990    20.6266    41.2566     3.2341    14.6405    14.6385     0.0020   295.0000     4.2331     5.358
     10     0.0000     0.0000     1.9850      1.895    136.000   7400.000      2.000    41.2537   -35.2077   -75.1672    -0.0975     1.9545     1.0040    -3.9990    20.6266    41.2566     3.2423    14.6405    14.6385     0.0020   295.0000     4.2331     5.358
     11     0.0000     0.0000     1.9900      1.854    348.000   7400.000      2.000    41.2537   -35.3189   -75.3887    -0.0975     1.9545     1.0040    -3.9990    20.6266    41.2566     3.2505    14.6405    14.6385     0.0020   295.0000     4.2331     5.358
     12    -0.0000    -0.0000     1.9950      1.860    513.000   7400.000      2.000    41.2537   -35.4311   -75.6111    -0.0975     1.9545     1.0040    -3.9990    20.6266    41.2566     3.2586    14.6405    14.6385     0.0020   295.0000     4.2340     5.376
     13    -0.0000     0.0000     2.0000      1.822    609.000   7400.000      2.000    41.2537   -35.5423   -75.8345    -0.0975     1.9545     1.0040    -3.9990    20.6266    41.2566     3.2668    14.6405    14.6385     0.0020   295.0000     4.2340     5.376
     14     0.0000     0.0001     2.0050      1.857    662.000   7400.000      2.000    41.2537   -35.6526   -76.0589    -0.0975     1.9545     1.0040    -3.9990    20.6266    41.2566     3.2750    14.6405    14.6385     0.0020   295.0000     4.2421     5.380
     15     0.0000     0.0000     2.0100      1.915    620.000   7400.000      2.000    41.2537   -35.7657   -76.2833    -0.0975     1.9545     1.0040    -3.9990    20.6266    41.2566     3.2832    14.6405    14.6385     0.0020   295.0000     4.2421     5.380
     16     0.0000     0.0000     2.0150      1.839    431.000   7400.000      2.000    41.2537   -35.8760   -76.5048    -0.0975     1.9545     1.0040    -3.9990    20.6266    41.2566     3.2913    14.6405    14.6385     0.0020   295.0000     4.2421     5.380
     17     0.0000     0.0000     2.0200      1.838    162.000   7400.000      2.000    41.2537   -35.9902   -76.7312    -0.0975     1.9545     1.0040    -3.9990    20.6266    41.2566     3.2995    14.6405    14.6385     0.0020   295.0000     4.2339     5.379
     18     0.0000     0.0000     2.0250      1.860     50.000   7400.000      2.000    41.2537   -36.1014   -76.9536    -0.0975     1.9545     1.0040    -3.9990    20.6266    41.2566     3.3076    14.6405    14.6385     0.0020   295.0000     4.2339     5.379
     19     0.0000     0.0000     2.0300      1.873      9.000   7400.000      2.000    41.2537   -36.2136   -77.1800    -0.0975     1.9545     1.0040    -3.9990    20.6266    41.2566     3.3158    14.6405    14.6385     0.0020   295.0000     4.2400     5.383
     20    -0.0000     0.0000     2.0350      1.858      1.000   7400.000      2.000    41.2537   -36.3268   -77.4044    -0.0975     1.9545     1.0040    -3.9990    20.6266    41.2566     3.3239    14.6405    14.6385     0.0020   295.0000     4.2400     5.383
     21    -0.0001    -0.0001     2.0400      1.854      0.000   7400.000      2.000    41.2537   -36.4419   -77.6308    -0.0975     1.9545     1.0040    -3.9990    20.6266    41.2566     3.3321    14.6405    14.6385     0.0020   295.0000     4.2400     5.383
     22    -0.0000     0.0000     2.0450      1.887      1.000   7400.000      2.000    41.2537   -36.5531   -77.8572    -0.0975     1.9545     1.0040    -3.9990    20.6266    41.2566     3.3403    14.6405    14.6385     0.0020   295.0000     4.2361     5.374
     23    -0.0000     0.0000     2.0500      1.805      0.000   7400.000      2.000    41.2537   -36.6663   -78.0835    -0.0975     1.9545     1.0040    -3.9990    20.6266    41.2566     3.3485    14.6405    14.6385     0.0020   295.0000     4.2361     5.374
     24     0.0000     0.0000     2.0550      1.860      1.000   7400.000      2.000    41.2537   -36.7785   -78.3099    -0.0975     1.9545     1.0040    -3.9990    20.6266    41.2566     3.3566    14.6405    14.6385     0.0020   295.0000     4.2361     5.374
     25    -0.0000     0.0000     2.0600      1.868      0.000   7400.000      2.000    41.2537   -36.8937   -78.5383    -0.0975     1.9545     1.0040    -3.9990    20.6266    41.2566     3.3648    14.6405    14.6385     0.0020   295.0000     4.2503     5.369
# Sum of Counts = 3583
# Center of Mass = 2.003298+/-0.047330
# Full Width Half-Maximum = 0.019815+/-0.027033
# 9:25:18 PM  11/10/2003   scan completed.
