# scan = 18
# date = 11/8/2003
# time = 12:39:25 PM
# experiment = TbPtIn single crystal;  100 plane
# experiment_number = 41
# command = scan sgu -4 4 .4 preset mcu 2
# builtin_command = scan sgu -4 4 .4 preset mcu 2
# users = O.Garlea, C.Stassis, J.L.Zarestky
# local_contact = J.L.Zarestky
# scan_title = 
# monochromator = PG002
# analyzer = Pg002
# sense = +-+
# collimation = 48-40-40-102
# samplename = TbPtIn
# sampletype = crystal
# samplemosaic = 30.000000
# latticeconstants = 7.527800,7.527800,3.846800,90.000000,90.000000,120.000000
# ubmatrix = -0.007280,-0.005772,0.259630,-0.132677,-0.132684,-0.012771,0.076634,-0.076750,0.002552
# mode = 0
# plane_normal = -0.009826,0.000044,0.999952
# ubconf = C:\User\exp41\UBConf\UB08Nov2003_122137PM.ini
# preset_type = normal 
# preset_channel = mcu
# preset_value = 2.000000
# def_x = sgu
# def_y = detector
# col_headers = 
#   Pt.        sgu       time   detector    monitor        mcu         m2         s1         s2        sgl        stl        stu         a1         a2          q          h          k          l         ei         ef          e       temp    coldtip    tsample
      1    -4.0005      1.893    170.000   7400.000      2.000    41.2537    74.6004   -36.6042     0.5630     0.0000    -0.0010    20.6267    41.2556     1.6694     0.8768     1.1184    -0.0024    14.6405    14.6392     0.0013   295.0000     0.0000     0.000
      2    -3.6030      1.889    238.000   7400.000      2.000    41.2537    74.6004   -36.6042     0.5630     0.0000    -0.0010    20.6267    41.2556     1.6694     0.8893     1.1068    -0.0023    14.6405    14.6392     0.0013   295.0000     0.0000     0.000
      3    -3.1990      1.856    284.000   7400.000      2.000    41.2537    74.6004   -36.6042     0.5630     0.0000    -0.0010    20.6267    41.2556     1.6694     0.9019     1.0951    -0.0022    14.6405    14.6392     0.0013   295.0000     0.0000     0.000
      4    -2.7995      1.919    337.000   7400.000      2.000    41.2537    74.6004   -36.6042     0.5630     0.0000    -0.0010    20.6267    41.2556     1.6694     0.9143     1.0834    -0.0022    14.6405    14.6392     0.0013   295.0000     0.0000     0.000
      5    -2.4000      1.846    373.000   7400.000      2.000    41.2537    74.6004   -36.6042     0.5630     0.0000    -0.0010    20.6267    41.2556     1.6694     0.9266     1.0717    -0.0021    14.6405    14.6392     0.0013   295.0000     0.0000     0.000
      6    -1.9995      1.858    434.000   7400.000      2.000    41.2537    74.6004   -36.6042     0.5630     0.0000    -0.0010    20.6267    41.2556     1.6694     0.9390     1.0599    -0.0020    14.6405    14.6392     0.0013   295.0000     0.0000     0.000
      7    -1.5995      1.851    402.000   7400.000      2.000    41.2537    74.6004   -36.6042     0.5630     0.0000    -0.0010    20.6267    41.2556     1.6694     0.9513     1.0480    -0.0019    14.6405    14.6392     0.0013   295.0000     0.0000     0.000
      8    -1.1995      1.872    412.000   7400.000      2.000    41.2537    74.6004   -36.6042     0.5630     0.0000    -0.0010    20.6267    41.2556     1.6694     0.9635     1.0361    -0.0018    14.6405    14.6392     0.0013   295.0000     0.0000     0.000
      9    -0.7995      1.853    420.000   7400.000      2.000    41.2537    74.6004   -36.6042     0.5630     0.0000    -0.0010    20.6267    41.2556     1.6694     0.9757     1.0241    -0.0018    14.6405    14.6392     0.0013   295.0000     0.0000     0.000
     10    -0.3995      1.902    358.000   7400.000      2.000    41.2537    74.6004   -36.6042     0.5630     0.0000    -0.0010    20.6267    41.2556     1.6694     0.9879     1.0121    -0.0017    14.6405    14.6392     0.0013   295.0000     0.0000     0.000
     11     0.0005      1.881    324.000   7400.000      2.000    41.2537    74.6004   -36.6042     0.5630     0.0000    -0.0010    20.6267    41.2556     1.6694     1.0000     1.0001    -0.0016    14.6405    14.6392     0.0013   295.0000     0.0000     0.000
     12     0.4000      1.888    245.000   7400.000      2.000    41.2537    74.5994   -36.6042     0.5630     0.0000    -0.0010    20.6267    41.2556     1.6694     1.0120     0.9880    -0.0015    14.6405    14.6392     0.0013   295.0000     0.0000     0.000
     13     0.8005      1.898    195.000   7400.000      2.000    41.2537    74.5994   -36.6042     0.5630     0.0000    -0.0010    20.6267    41.2556     1.6694     1.0240     0.9758    -0.0015    14.6405    14.6392     0.0013   295.0000     0.0000     0.000
     14     1.2000      1.891    164.000   7400.000      2.000    41.2537    74.5994   -36.6042     0.5630     0.0000    -0.0010    20.6267    41.2556     1.6694     1.0360     0.9637    -0.0014    14.6405    14.6392     0.0013   295.0000     0.0000     0.000
     15     1.6005      1.875     99.000   7400.000      2.000    41.2537    74.5994   -36.6042     0.5630     0.0000    -0.0010    20.6267    41.2556     1.6694     1.0479     0.9514    -0.0013    14.6405    14.6392     0.0013   295.0000     0.0000     0.000
     16     2.0005      1.854     46.000   7400.000      2.000    41.2537    74.5994   -36.6042     0.5630     0.0000    -0.0010    20.6267    41.2556     1.6694     1.0597     0.9391    -0.0013    14.6405    14.6392     0.0013   295.0000     0.0000     0.000
     17     2.3995      1.899     16.000   7400.000      2.000    41.2537    74.5994   -36.6042     0.5630     0.0000    -0.0010    20.6267    41.2556     1.6694     1.0715     0.9268    -0.0012    14.6405    14.6392     0.0013   295.0000     0.0000     0.000
     18     2.8005      1.864     10.000   7400.000      2.000    41.2537    74.5994   -36.6042     0.5630     0.0000    -0.0010    20.6267    41.2556     1.6694     1.0833     0.9144    -0.0012    14.6405    14.6392     0.0013   295.0000     0.0000     0.000
     19     3.2000      1.868      2.000   7400.000      2.000    41.2537    74.5994   -36.6042     0.5630     0.0000    -0.0010    20.6267    41.2556     1.6694     1.0950     0.9020    -0.0011    14.6405    14.6392     0.0013   295.0000     0.0000     0.000
     20     3.6000      1.870      0.000   7400.000      2.000    41.2537    74.5994   -36.6042     0.5630     0.0000    -0.0010    20.6267    41.2556     1.6694     1.1066     0.8895    -0.0011    14.6405    14.6392     0.0013   295.0000     0.0000     0.000
     21     4.0005      1.900      0.000   7400.000      2.000    41.2537    74.5994   -36.6042     0.5630     0.0000    -0.0010    20.6267    41.2556     1.6694     1.1182     0.8770    -0.0010    14.6405    14.6392     0.0013   295.0000     0.0000     0.000
# Sum of Counts = 4529
# Center of Mass = -1.323516+/-0.035706
# Full Width Half-Maximum = 3.013749+/-0.043841
# 12:40:48 PM  11/8/2003   scan completed.
