# scan = 39
# date = 11/9/2003
# time = 2:55:25 AM
# experiment = TbPtIn single crystal;  100 plane
# experiment_number = 41
# command = scan h -.3 .8 .005 k -.3 .8 .005 l 1.7 2.8 .005 preset mcu 6
# builtin_command = scan h -.3 .8 .005 k -.3 .8 .005 l 1.7 2.8 .005 preset mcu 6
# users = O.Garlea, C.Stassis, J.L.Zarestky
# local_contact = J.L.Zarestky
# scan_title = h,h,h+2 scan
# monochromator = PG002
# analyzer = Pg002
# sense = +-+
# collimation = 48-40-40-102
# samplename = TbPtIn
# sampletype = crystal
# samplemosaic = 30.000000
# latticeconstants = 7.554017,7.554017,3.847681,90.000000,90.000000,120.000000
# ubmatrix = -0.008230,-0.004834,0.259516,-0.134256,-0.130074,-0.012979,0.072618,-0.080146,0.005414
# mode = 0
# plane_normal = -0.022217,-0.027363,0.999379
# ubconf = C:\User\exp41\UBConf\UB08Nov2003_100555PM.ini
# preset_type = normal 
# preset_channel = mcu
# preset_value = 6.000000
# def_x = h
# def_y = detector
# col_headers = 
#   Pt.          h          k          l       time   detector    monitor        mcu         m2         s1         s2        sgl        sgu        stl        stu         a1         a2          q         ei         ef          e       temp    coldtip    tsample
      1    -0.3000    -0.2999     1.7001      5.636      1.000  22200.000      6.000    41.2537   -39.4075   -64.0904     1.2730    -1.5670    -0.0020    -0.0010    20.6267    41.2556     2.8206    14.6405    14.6392     0.0013   295.0000     9.8248     9.597
      2    -0.2948    -0.2948     1.7050      5.699      1.000  22200.000      6.000    41.2537   -39.2904   -64.2558     1.2730    -1.5670    -0.0020    -0.0010    20.6267    41.2556     2.8271    14.6405    14.6392     0.0013   295.0000     9.8248     9.597
      3    -0.2900    -0.2900     1.7100      5.668      0.000  22200.000      6.000    41.2537   -39.1870   -64.4241     1.2730    -1.5670    -0.0020    -0.0010    20.6267    41.2556     2.8337    14.6405    14.6392     0.0013   295.0000     9.8599     9.573
      4    -0.2849    -0.2849     1.7150      5.622      0.000  22200.000      6.000    41.2537   -39.0758   -64.5944     1.2730    -1.5670    -0.0020    -0.0010    20.6267    41.2556     2.8404    14.6405    14.6392     0.0013   295.0000     9.8236     9.577
      5    -0.2799    -0.2798     1.7200      5.654      2.000  22200.000      6.000    41.2537   -38.9665   -64.7646     1.2730    -1.5670    -0.0020    -0.0010    20.6267    41.2556     2.8471    14.6405    14.6392     0.0013   295.0000     9.8635     9.602
      6    -0.2750    -0.2750     1.7250      5.586      1.000  22200.000      6.000    41.2537   -38.8652   -64.9339     1.2730    -1.5670    -0.0020    -0.0010    20.6267    41.2556     2.8537    14.6405    14.6392     0.0013   295.0000     9.8635     9.602
      7    -0.2700    -0.2700     1.7300      5.636      0.000  22200.000      6.000    41.2537   -38.7608   -65.1082     1.2730    -1.5670    -0.0020    -0.0010    20.6267    41.2556     2.8605    14.6405    14.6392     0.0013   295.0000     9.8234     9.574
      8    -0.2650    -0.2650     1.7350      5.634      0.000  22200.000      6.000    41.2537   -38.6575   -65.2824     1.2730    -1.5670    -0.0020    -0.0010    20.6267    41.2556     2.8674    14.6405    14.6392     0.0013   295.0000     9.8591     9.591
      9    -0.2601    -0.2600     1.7400      5.688      0.000  22200.000      6.000    41.2537   -38.5571   -65.4546     1.2730    -1.5670    -0.0020    -0.0010    20.6267    41.2556     2.8741    14.6405    14.6392     0.0013   295.0000     9.8290     9.593
     10    -0.2550    -0.2550     1.7451      5.573      0.000  22200.000      6.000    41.2537   -38.4557   -65.6328     1.2730    -1.5670    -0.0020    -0.0010    20.6267    41.2556     2.8810    14.6405    14.6392     0.0013   295.0000     9.8290     9.593
     11    -0.2500    -0.2500     1.7500      5.635      2.000  22200.000      6.000    41.2537   -38.3573   -65.8060     1.2730    -1.5670    -0.0020    -0.0010    20.6267    41.2556     2.8878    14.6405    14.6392     0.0013   295.0000     9.8621     9.620
     12    -0.2450    -0.2450     1.7550      5.586      0.000  22200.000      6.000    41.2537   -38.2598   -65.9832     1.2730    -1.5670    -0.0020    -0.0010    20.6267    41.2556     2.8947    14.6405    14.6392     0.0013   295.0000     9.8237     9.532
     13    -0.2400    -0.2400     1.7600      5.632      0.000  22200.000      6.000    41.2537   -38.1624   -66.1633     1.2730    -1.5670    -0.0020    -0.0010    20.6267    41.2556     2.9017    14.6405    14.6392     0.0013   295.0000     9.8532     9.570
     14    -0.2348    -0.2348     1.7650      5.649      0.000  22200.000      6.000    41.2537   -38.0610   -66.3414     1.2730    -1.5670    -0.0020    -0.0010    20.6267    41.2556     2.9086    14.6405    14.6392     0.0013   295.0000     9.8543     9.588
     15    -0.2300    -0.2300     1.7700      5.588      0.000  22200.000      6.000    41.2537   -37.9754   -66.5206     1.2730    -1.5670    -0.0020    -0.0010    20.6267    41.2556     2.9156    14.6405    14.6392     0.0013   295.0000     9.8543     9.588
     16    -0.2250    -0.2250     1.7750      5.593      0.000  22200.000      6.000    41.2537   -37.8819   -66.7036     1.2730    -1.5670    -0.0020    -0.0010    20.6267    41.2556     2.9227    14.6405    14.6392     0.0013   295.0000     9.8561     9.571
     17    -0.2200    -0.2200     1.7800      5.630      0.000  22200.000      6.000    41.2537   -37.7913   -66.8828     1.2730    -1.5670    -0.0020    -0.0010    20.6267    41.2556     2.9296    14.6405    14.6392     0.0013   295.0000     9.8268     9.586
     18    -0.2150    -0.2150     1.7850      5.599      0.000  22200.000      6.000    41.2537   -37.7018   -67.0668     1.2730    -1.5670    -0.0020    -0.0010    20.6267    41.2556     2.9367    14.6405    14.6392     0.0013   295.0000     9.8512     9.540
     19    -0.2100    -0.2100     1.7900      5.623      1.000  22200.000      6.000    41.2537   -37.6142   -67.2528     1.2730    -1.5670    -0.0020    -0.0010    20.6267    41.2556     2.9439    14.6405    14.6392     0.0013   295.0000     9.8512     9.540
     20    -0.2050    -0.2050     1.7950      5.658      0.000  22200.000      6.000    41.2537   -37.5266   -67.4349     1.2730    -1.5670    -0.0020    -0.0010    20.6267    41.2556     2.9509    14.6405    14.6392     0.0013   295.0000     9.8250     9.548
     21    -0.2000    -0.2000     1.8000      5.659      1.000  22200.000      6.000    41.2537   -37.4409   -67.6219     1.2730    -1.5670    -0.0020    -0.0010    20.6267    41.2556     2.9581    14.6405    14.6392     0.0013   295.0000     9.8610     9.577
     22    -0.1951    -0.1951     1.8050      5.589      0.000  22200.000      6.000    41.2537   -37.3593   -67.8070     1.2730    -1.5670    -0.0020    -0.0010    20.6267    41.2556     2.9653    14.6405    14.6392     0.0013   295.0000     9.8201     9.588
     23    -0.1900    -0.1900     1.8100      5.668      2.000  22200.000      6.000    41.2537   -37.2746   -67.9959     1.2730    -1.5670    -0.0020    -0.0010    20.6267    41.2556     2.9725    14.6405    14.6392     0.0013   295.0000     9.8613     9.607
     24    -0.1850    -0.1850     1.8150      5.599      1.000  22200.000      6.000    41.2537   -37.1939   -68.1839     1.2730    -1.5670    -0.0020    -0.0010    20.6267    41.2556     2.9798    14.6405    14.6392     0.0013   295.0000     9.8613     9.607
     25    -0.1800    -0.1800     1.8200      5.621      0.000  22200.000      6.000    41.2537   -37.1132   -68.3739     1.2730    -1.5670    -0.0020    -0.0010    20.6267    41.2556     2.9871    14.6405    14.6392     0.0013   295.0000     9.8582     9.573
     26    -0.1750    -0.1750     1.8251      5.628      0.000  22200.000      6.000    41.2537   -37.0354   -68.5678     1.2730    -1.5670    -0.0020    -0.0010    20.6267    41.2556     2.9945    14.6405    14.6392     0.0013   295.0000     9.8606     9.578
     27    -0.1700    -0.1700     1.8301      5.612      0.000  22200.000      6.000    41.2537   -36.9567   -68.7578     1.2730    -1.5670    -0.0020    -0.0010    20.6267    41.2556     3.0018    14.6405    14.6392     0.0013   295.0000     9.8122     9.532
     28    -0.1650    -0.1650     1.8350      5.682      1.000  22200.000      6.000    41.2537   -36.8809   -68.9467     1.2730    -1.5670    -0.0020    -0.0010    20.6267    41.2556     3.0090    14.6405    14.6392     0.0013   295.0000     9.8122     9.532
     29    -0.1600    -0.1600     1.8400      5.577      0.000  22200.000      6.000    41.2537   -36.8051   -69.1416     1.2730    -1.5670    -0.0020    -0.0010    20.6267    41.2556     3.0165    14.6405    14.6392     0.0013   295.0000     9.8590     9.605
     30    -0.1550    -0.1550     1.8450      5.581      0.000  22200.000      6.000    41.2537   -36.7333   -69.3355     1.2730    -1.5670    -0.0020    -0.0010    20.6267    41.2556     3.0239    14.6405    14.6392     0.0013   295.0000     9.8519     9.587
     31    -0.1501    -0.1501     1.8500      5.624      0.000  22200.000      6.000    41.2537   -36.6614   -69.5294     1.2730    -1.5670    -0.0020    -0.0010    20.6267    41.2556     3.0313    14.6405    14.6392     0.0013   295.0000     9.8548     9.564
     32    -0.1450    -0.1450     1.8550      5.631      0.000  22200.000      6.000    41.2537   -36.5886   -69.7272     1.2730    -1.5670    -0.0020    -0.0010    20.6267    41.2556     3.0388    14.6405    14.6392     0.0013   295.0000     9.8111     9.599
     33    -0.1400    -0.1400     1.8600      5.551      0.000  22200.000      6.000    41.2537   -36.5187   -69.9221     1.2730    -1.5670    -0.0020    -0.0010    20.6267    41.2556     3.0462    14.6405    14.6392     0.0013   295.0000     9.8111     9.599
     34    -0.1350    -0.1350     1.8650      5.672      2.000  22200.000      6.000    41.2537   -36.4518   -70.1209     1.2730    -1.5670    -0.0020    -0.0010    20.6267    41.2556     3.0538    14.6405    14.6392     0.0013   295.0000     9.8548     9.588
     35    -0.1300    -0.1300     1.8700      5.578      1.000  22200.000      6.000    41.2537   -36.3839   -70.3217     1.2730    -1.5670    -0.0020    -0.0010    20.6267    41.2556     3.0614    14.6405    14.6392     0.0013   295.0000     9.8094     9.527
     36    -0.1250    -0.1250     1.8750      5.637      0.000  22200.000      6.000    41.2537   -36.3189   -70.5186     1.2730    -1.5670    -0.0020    -0.0010    20.6267    41.2556     3.0688    14.6405    14.6392     0.0013   295.0000     9.8576     9.602
     37    -0.1201    -0.1200     1.8800      5.655      0.000  22200.000      6.000    41.2537   -36.2549   -70.7204     1.2730    -1.5670    -0.0020    -0.0010    20.6267    41.2556     3.0765    14.6405    14.6392     0.0013   295.0000     9.8576     9.602
     38    -0.1151    -0.1150     1.8850      5.592      0.000  22200.000      6.000    41.2537   -36.1909   -70.9202     1.2730    -1.5670    -0.0020    -0.0010    20.6267    41.2556     3.0840    14.6405    14.6392     0.0013   295.0000     9.8596     9.585
     39    -0.1100    -0.1100     1.8900      5.596      1.000  22200.000      6.000    41.2537   -36.1270   -71.1239     1.2730    -1.5670    -0.0020    -0.0010    20.6267    41.2556     3.0917    14.6405    14.6392     0.0013   295.0000     9.8085     9.576
     40    -0.1050    -0.1050     1.8950      5.644      4.000  22200.000      6.000    41.2537   -36.0669   -71.3276     1.2730    -1.5670    -0.0020    -0.0010    20.6267    41.2556     3.0994    14.6405    14.6392     0.0013   295.0000     9.8577     9.573
     41    -0.1000    -0.1000     1.9000      5.632      2.000  22200.000      6.000    41.2537   -36.0069   -71.5314     1.2730    -1.5670    -0.0020    -0.0010    20.6267    41.2556     3.1071    14.6405    14.6392     0.0013   295.0000     9.8577     9.573
     42    -0.0950    -0.0950     1.9050      5.474      2.000  22200.000      6.000    41.2537   -35.9498   -71.7381     1.2730    -1.5670    -0.0020    -0.0010    20.6267    41.2556     3.1149    14.6405    14.6392     0.0013   295.0000     9.8621     9.633
     43    -0.0900    -0.0900     1.9100      5.659      3.000  22200.000      6.000    41.2537   -35.8927   -71.9418     1.2730    -1.5670    -0.0020    -0.0010    20.6267    41.2556     3.1225    14.6405    14.6392     0.0013   295.0000     9.8087     9.521
     44    -0.0850    -0.0850     1.9150      5.607      2.000  22200.000      6.000    41.2537   -35.8366   -72.1515     1.2730    -1.5670    -0.0020    -0.0010    20.6267    41.2556     3.1304    14.6405    14.6392     0.0013   295.0000     9.8557     9.582
     45    -0.0800    -0.0800     1.9200      5.624      1.000  22200.000      6.000    41.2537   -35.7815   -72.3582     1.2730    -1.5670    -0.0020    -0.0010    20.6267    41.2556     3.1381    14.6405    14.6392     0.0013   295.0000     9.8148     9.595
     46    -0.0750    -0.0750     1.9250      5.616      1.000  22200.000      6.000    41.2537   -35.7303   -72.5668     1.2730    -1.5670    -0.0020    -0.0010    20.6267    41.2556     3.1459    14.6405    14.6392     0.0013   295.0000     9.8148     9.595
     47    -0.0700    -0.0700     1.9300      5.618      1.000  22200.000      6.000    41.2537   -35.6772   -72.7774     1.2730    -1.5670    -0.0020    -0.0010    20.6267    41.2556     3.1538    14.6405    14.6392     0.0013   295.0000     9.8553     9.577
     48    -0.0650    -0.0650     1.9350      5.637      2.000  22200.000      6.000    41.2537   -35.6260   -72.9871     1.2730    -1.5670    -0.0020    -0.0010    20.6267    41.2556     3.1616    14.6405    14.6392     0.0013   295.0000     9.8579     9.588
     49    -0.0600    -0.0600     1.9400      5.570      1.000  22200.000      6.000    41.2537   -35.5778   -73.2007     1.2730    -1.5670    -0.0020    -0.0010    20.6267    41.2556     3.1696    14.6405    14.6392     0.0013   295.0000     9.8615     9.599
     50    -0.0550    -0.0550     1.9450      5.606      1.000  22200.000      6.000    41.2537   -35.5276   -73.4113     1.2730    -1.5670    -0.0020    -0.0010    20.6267    41.2556     3.1774    14.6405    14.6392     0.0013   295.0000     9.8615     9.599
     51    -0.0500    -0.0500     1.9500      5.626      1.000  22200.000      6.000    41.2537   -35.4823   -73.6249     1.2730    -1.5670    -0.0020    -0.0010    20.6267    41.2556     3.1854    14.6405    14.6392     0.0013   295.0000     9.8259     9.544
     52    -0.0450    -0.0450     1.9550      5.609      0.000  22200.000      6.000    41.2537   -35.4370   -73.8395     1.2730    -1.5670    -0.0020    -0.0010    20.6267    41.2556     3.1933    14.6405    14.6392     0.0013   295.0000     9.8666     9.582
     53    -0.0400    -0.0400     1.9600      5.617      1.000  22200.000      6.000    41.2537   -35.3907   -74.0550     1.2730    -1.5670    -0.0020    -0.0010    20.6267    41.2556     3.2013    14.6405    14.6392     0.0013   295.0000     9.8636     9.575
     54    -0.0350    -0.0350     1.9650      5.639      1.000  22200.000      6.000    41.2537   -35.3484   -74.2715     1.2730    -1.5670    -0.0020    -0.0010    20.6267    41.2556     3.2093    14.6405    14.6392     0.0013   295.0000     9.8636     9.575
     55    -0.0300    -0.0300     1.9700      5.590      0.000  22200.000      6.000    41.2537   -35.3061   -74.4881     1.2730    -1.5670    -0.0020    -0.0010    20.6267    41.2556     3.2173    14.6405    14.6392     0.0013   295.0000     9.8631     9.605
     56    -0.0250    -0.0250     1.9750      5.669      3.000  22200.000      6.000    41.2537   -35.2657   -74.7076     1.2730    -1.5670    -0.0020    -0.0010    20.6267    41.2556     3.2254    14.6405    14.6392     0.0013   295.0000     9.8609     9.586
     57    -0.0201    -0.0201     1.9800      5.647     10.000  22200.000      6.000    41.2537   -35.2264   -74.9241     1.2730    -1.5670    -0.0020    -0.0010    20.6267    41.2556     3.2334    14.6405    14.6392     0.0013   295.0000     9.8617     9.598
     58    -0.0150    -0.0150     1.9850      5.638     91.000  22200.000      6.000    41.2537   -35.1870   -75.1456     1.2730    -1.5670    -0.0020    -0.0010    20.6267    41.2556     3.2416    14.6405    14.6392     0.0013   295.0000     9.7945     9.553
     59    -0.0100    -0.0100     1.9900      5.638    747.000  22200.000      6.000    41.2537   -35.1486   -75.3660     1.2730    -1.5670    -0.0020    -0.0010    20.6267    41.2556     3.2497    14.6405    14.6392     0.0013   295.0000     9.7945     9.553
     60    -0.0050    -0.0050     1.9950      5.627   2974.000  22200.000      6.000    41.2537   -35.1132   -75.5875     1.2730    -1.5670    -0.0020    -0.0010    20.6267    41.2556     3.2578    14.6405    14.6392     0.0013   295.0000     9.8627     9.567
     61    -0.0000    -0.0000     2.0000      5.622   4345.000  22200.000      6.000    41.2537   -35.0787   -75.8099     1.2730    -1.5670    -0.0020    -0.0010    20.6267    41.2556     3.2659    14.6405    14.6392     0.0013   295.0000     9.8548     9.577
     62     0.0050     0.0050     2.0050      5.635   2759.000  22200.000      6.000    41.2537   -35.0443   -76.0343     1.2730    -1.5670    -0.0020    -0.0010    20.6267    41.2556     3.2741    14.6405    14.6392     0.0013   295.0000     9.8532     9.591
     63     0.0100     0.0100     2.0101      5.691    836.000  22200.000      6.000    41.2537   -35.0118   -76.2607     1.2730    -1.5670    -0.0020    -0.0010    20.6267    41.2556     3.2824    14.6405    14.6392     0.0013   295.0000     9.8532     9.591
     64     0.0150     0.0150     2.0150      5.621    130.000  22200.000      6.000    41.2537   -34.9803   -76.4822     1.2730    -1.5670    -0.0020    -0.0010    20.6267    41.2556     3.2905    14.6405    14.6392     0.0013   295.0000     9.8582     9.644
     65     0.0200     0.0200     2.0200      5.549     17.000  22200.000      6.000    41.2537   -34.9488   -76.7105     1.2730    -1.5670    -0.0020    -0.0010    20.6267    41.2556     3.2988    14.6405    14.6392     0.0013   295.0000     9.8503     9.546
     66     0.0250     0.0250     2.0250      5.657      4.000  22200.000      6.000    41.2537   -34.9213   -76.9369     1.2730    -1.5670    -0.0020    -0.0010    20.6267    41.2556     3.3070    14.6405    14.6392     0.0013   295.0000     9.8476     9.594
     67     0.0300     0.0300     2.0300      5.583      0.000  22200.000      6.000    41.2537   -34.8937   -77.1643     1.2730    -1.5670    -0.0020    -0.0010    20.6267    41.2556     3.3153    14.6405    14.6392     0.0013   295.0000     9.8376     9.556
     68     0.0350     0.0350     2.0350      5.605      1.000  22200.000      6.000    41.2537   -34.8661   -77.3936     1.2730    -1.5670    -0.0020    -0.0010    20.6267    41.2556     3.3236    14.6405    14.6392     0.0013   295.0000     9.8376     9.556
     69     0.0400     0.0400     2.0400      5.606      1.000  22200.000      6.000    41.2537   -34.8406   -77.6239     1.2730    -1.5670    -0.0020    -0.0010    20.6267    41.2556     3.3319    14.6405    14.6392     0.0013   295.0000     9.8277     9.598
     70     0.0450     0.0450     2.0450      5.642      0.000  22200.000      6.000    41.2537   -34.8169   -77.8552     1.2730    -1.5670    -0.0020    -0.0010    20.6267    41.2556     3.3403    14.6405    14.6392     0.0013   295.0000     9.8276     9.579
     71     0.0500     0.0500     2.0500      5.581      1.000  22200.000      6.000    41.2537   -34.7933   -78.0865     1.2730    -1.5670    -0.0020    -0.0010    20.6267    41.2556     3.3486    14.6405    14.6392     0.0013   295.0000     9.8200     9.587
