# scan = 291
# date = 11/10/2003
# time = 11:43:07 PM
# experiment = TbPtIn single crystal;  100 plane
# experiment_number = 41
# command = scan h 1.94 2.06 .005 k 1.94 2.06 .005 l 0 preset 4
# builtin_command = scan h 1.94 2.06 .005 k 1.94 2.06 .005 l 0 preset 4
# users = O.Garlea, C.Stassis, J.L.Zarestky
# local_contact = J.L.Zarestky
# scan_title = 220 field dependence: base Temp, H = 2.800000 T
# monochromator = PG002
# analyzer = Pg002
# sense = +-+
# collimation = 48-40-40-102
# samplename = TbPtIn
# sampletype = crystal
# samplemosaic = 30.000000
# latticeconstants = 7.554053,7.554053,3.846679,90.000000,90.000000,120.000000
# ubmatrix = -0.005362,-0.005623,0.259740,-0.129577,-0.134798,-0.010795,0.080912,-0.071857,-0.000073
# mode = 0
# plane_normal = 0.001702,0.034158,0.999415
# ubconf = C:\User\exp41\UBConf\UB10Nov2003_64050PM.ini
# preset_type = normal 
# preset_channel = mcu
# preset_value = 4.000000
# def_x = h
# def_y = detector
# col_headers = 
#   Pt.          h          k          l       time   detector    monitor        mcu         m2         s1         s2        sgl        sgu        stl        stu         a1         a2          q         ei         ef          e       temp    coldtip    tsample
      1     1.9399     1.9402    -0.0000      3.727      2.000  14800.000      4.000    41.2537    54.9970   -74.7587    -0.0975     1.9545     1.0040    -3.9990    20.6267    41.2566     3.2273    14.6405    14.6385     0.0020   295.0000     4.2327     4.386
      2     1.9448     1.9451     0.0000      3.720      3.000  14800.000      4.000    41.2537    54.8839   -74.9812    -0.0975     1.9545     1.0040    -3.9990    20.6267    41.2566     3.2355    14.6405    14.6385     0.0020   295.0000     4.2407     4.382
      3     1.9498     1.9502    -0.0000      3.716      1.000  14800.000      4.000    41.2537    54.7717   -75.2095    -0.0975     1.9545     1.0040    -3.9990    20.6267    41.2566     3.2439    14.6405    14.6385     0.0020   295.0000     4.2407     4.382
      4     1.9548     1.9552    -0.0000      3.711      0.000  14800.000      4.000    41.2537    54.6585   -75.4349    -0.0975     1.9545     1.0040    -3.9990    20.6267    41.2566     3.2522    14.6405    14.6385     0.0020   295.0000     4.2280     4.386
      5     1.9599     1.9602    -0.0000      3.670      2.000  14800.000      4.000    41.2537    54.5443   -75.6643    -0.0975     1.9545     1.0040    -3.9990    20.6267    41.2566     3.2606    14.6405    14.6385     0.0020   295.0000     4.2344     4.391
      6     1.9648     1.9651     0.0001      3.710      1.000  14800.000      4.000    41.2537    54.4301   -75.8877    -0.0975     1.9545     1.0040    -3.9990    20.6267    41.2566     3.2687    14.6405    14.6385     0.0020   295.0000     4.2344     4.391
      7     1.9699     1.9702    -0.0001      3.668      0.000  14800.000      4.000    41.2537    54.3179   -76.1200    -0.0975     1.9545     1.0040    -3.9990    20.6267    41.2566     3.2772    14.6405    14.6385     0.0020   295.0000     4.2252     4.383
      8     1.9748     1.9752    -0.0001      3.660      9.000  14800.000      4.000    41.2537    54.2037   -76.3463    -0.0975     1.9545     1.0040    -3.9990    20.6267    41.2566     3.2855    14.6405    14.6385     0.0020   295.0000     4.2252     4.383
      9     1.9798     1.9802     0.0000      3.715     46.000  14800.000      4.000    41.2537    54.0886   -76.5727    -0.0975     1.9545     1.0040    -3.9990    20.6267    41.2566     3.2938    14.6405    14.6385     0.0020   295.0000     4.2268     4.387
     10     1.9848     1.9852     0.0000      3.727    198.000  14800.000      4.000    41.2537    53.9744   -76.8020    -0.0975     1.9545     1.0040    -3.9990    20.6267    41.2566     3.3021    14.6405    14.6385     0.0020   295.0000     4.2268     4.387
     11     1.9898     1.9902    -0.0000      3.702    456.000  14800.000      4.000    41.2537    53.8612   -77.0304    -0.0975     1.9545     1.0040    -3.9990    20.6267    41.2566     3.3104    14.6405    14.6385     0.0020   295.0000     4.2261     4.382
     12     1.9948     1.9952    -0.0000      3.693    657.000  14800.000      4.000    41.2537    53.7461   -77.2597    -0.0975     1.9545     1.0040    -3.9990    20.6267    41.2566     3.3187    14.6405    14.6385     0.0020   295.0000     4.2011     4.388
     13     1.9998     2.0002     0.0000      3.739    726.000  14800.000      4.000    41.2537    53.6299   -77.4891    -0.0975     1.9545     1.0040    -3.9990    20.6267    41.2566     3.3270    14.6405    14.6385     0.0020   295.0000     4.2011     4.388
     14     2.0048     2.0052     0.0000      3.724    641.000  14800.000      4.000    41.2537    53.5148   -77.7204    -0.0975     1.9545     1.0040    -3.9990    20.6267    41.2566     3.3354    14.6405    14.6385     0.0020   295.0000     4.2275     4.387
     15     2.0098     2.0102     0.0000      3.737    463.000  14800.000      4.000    41.2537    53.4006   -77.9497    -0.0975     1.9545     1.0040    -3.9990    20.6267    41.2566     3.3437    14.6405    14.6385     0.0020   295.0000     4.2275     4.387
     16     2.0148     2.0152    -0.0000      3.729    261.000  14800.000      4.000    41.2537    53.2854   -78.1830    -0.0975     1.9545     1.0040    -3.9990    20.6267    41.2566     3.3521    14.6405    14.6385     0.0020   295.0000     4.2268     4.387
     17     2.0198     2.0202    -0.0000      3.795    105.000  14800.000      4.000    41.2537    53.1693   -78.4133    -0.0975     1.9545     1.0040    -3.9990    20.6267    41.2566     3.3603    14.6405    14.6385     0.0020   295.0000     4.2290     4.382
     18     2.0248     2.0252    -0.0000      3.748     12.000  14800.000      4.000    41.2537    53.0531   -78.6456    -0.0975     1.9545     1.0040    -3.9990    20.6267    41.2566     3.3687    14.6405    14.6385     0.0020   295.0000     4.2290     4.382
     19     2.0298     2.0302    -0.0000      3.672      1.000  14800.000      4.000    41.2537    52.9390   -78.8749    -0.0975     1.9545     1.0040    -3.9990    20.6267    41.2566     3.3769    14.6405    14.6385     0.0020   295.0000     4.2278     4.387
     20     2.0348     2.0352    -0.0000      3.677      0.000  14800.000      4.000    41.2537    52.8228   -79.1082    -0.0975     1.9545     1.0040    -3.9990    20.6267    41.2566     3.3853    14.6405    14.6385     0.0020   295.0000     4.2278     4.387
     21     2.0398     2.0402    -0.0000      3.713      2.000  14800.000      4.000    41.2537    52.7057   -79.3414    -0.0975     1.9545     1.0040    -3.9990    20.6267    41.2566     3.3936    14.6405    14.6385     0.0020   295.0000     4.2261     4.390
     22     2.0448     2.0452     0.0001      3.642      0.000  14800.000      4.000    41.2537    52.5866   -79.5747    -0.0975     1.9545     1.0040    -3.9990    20.6267    41.2566     3.4019    14.6405    14.6385     0.0020   295.0000     4.2286     4.388
     23     2.0498     2.0502    -0.0000      3.731      1.000  14800.000      4.000    41.2537    52.4715   -79.8089    -0.0975     1.9545     1.0040    -3.9990    20.6267    41.2566     3.4103    14.6405    14.6385     0.0020   295.0000     4.2286     4.388
     24     2.0548     2.0552    -0.0000      3.757      0.000  14800.000      4.000    41.2537    52.3553   -80.0412    -0.0975     1.9545     1.0040    -3.9990    20.6267    41.2566     3.4185    14.6405    14.6385     0.0020   295.0000     4.2272     4.389
     25     2.0598     2.0602     0.0000      3.747      1.000  14800.000      4.000    41.2537    52.2372   -80.2755    -0.0975     1.9545     1.0040    -3.9990    20.6267    41.2566     3.4268    14.6405    14.6385     0.0020   295.0000     4.2272     4.389
# Sum of Counts = 3588
# Center of Mass = 2.000346+/-0.047228
# Full Width Half-Maximum = 0.019280+/-0.026317
# 11:46:04 PM  11/10/2003   scan completed.
