# scan = 118
# date = 11/9/2003
# time = 6:33:16 PM
# experiment = TbPtIn single crystal;  100 plane
# experiment_number = 41
# command = scan h .45 .55 .0025 k .45 .55 .0025 l .45 .55 .0025 preset mcu 10
# builtin_command = scan h .45 .55 .0025 k .45 .55 .0025 l .45 .55 .0025 preset mcu 10
# users = O.Garlea, C.Stassis, J.L.Zarestky
# local_contact = J.L.Zarestky
# scan_title = hhh order parameter UP T = 52.0000
# monochromator = PG002
# analyzer = Pg002
# sense = +-+
# collimation = 48-40-40-102
# samplename = TbPtIn
# sampletype = crystal
# samplemosaic = 30.000000
# latticeconstants = 7.554017,7.554017,3.847681,90.000000,90.000000,120.000000
# ubmatrix = -0.008230,-0.004834,0.259516,-0.134256,-0.130074,-0.012979,0.072618,-0.080146,0.005414
# mode = 0
# plane_normal = -0.022217,-0.027363,0.999379
# ubconf = C:\User\exp41\UBConf\UB08Nov2003_100555PM.ini
# preset_type = normal 
# preset_channel = mcu
# preset_value = 10.000000
# def_x = h
# def_y = detector
# col_headers = 
#   Pt.          h          k          l       time   detector    monitor        mcu         m2         s1         s2        sgl        sgu        stl        stu         a1         a2          q         ei         ef          e       temp    coldtip    tsample
      1     0.4500     0.4500     0.4500      9.353      2.000  37000.000     10.000    41.2537    36.9715   -22.7617     1.2730    -1.5670    -0.0020    -0.0010    20.6267    41.2556     1.0490    14.6405    14.6392     0.0013    52.0000    51.8880    59.336
      2     0.4525     0.4525     0.4525      9.301      4.000  37000.000     10.000    41.2537    36.9094   -22.8887     1.2730    -1.5670    -0.0020    -0.0010    20.6267    41.2556     1.0548    14.6405    14.6392     0.0013    52.0000    51.8190    55.196
      3     0.4550     0.4550     0.4550      9.380      2.000  37000.000     10.000    41.2537    36.8455   -23.0166     1.2730    -1.5670    -0.0020    -0.0010    20.6267    41.2556     1.0606    14.6405    14.6392     0.0013    52.0000    51.8010    55.348
      4     0.4575     0.4575     0.4575      9.398      3.000  37000.000     10.000    41.2537    36.7795   -23.1465     1.2730    -1.5670    -0.0020    -0.0010    20.6267    41.2556     1.0665    14.6405    14.6392     0.0013    52.0000    51.8540    57.876
      5     0.4600     0.4600     0.4600      9.326      3.000  37000.000     10.000    41.2537    36.7185   -23.2725     1.2730    -1.5670    -0.0020    -0.0010    20.6267    41.2556     1.0722    14.6405    14.6392     0.0013    52.0000    51.8610    55.977
      6     0.4625     0.4625     0.4625      9.352      4.000  37000.000     10.000    41.2537    36.6526   -23.4024     1.2730    -1.5670    -0.0020    -0.0010    20.6267    41.2556     1.0781    14.6405    14.6392     0.0013    52.0000    51.9240    58.830
      7     0.4651     0.4650     0.4650      9.395      1.000  37000.000     10.000    41.2537    36.5886   -23.5324     1.2730    -1.5670    -0.0020    -0.0010    20.6267    41.2556     1.0840    14.6405    14.6392     0.0013    52.0000    51.9620    59.662
      8     0.4676     0.4675     0.4675      9.393      2.000  37000.000     10.000    41.2537    36.5246   -23.6613     1.2730    -1.5670    -0.0020    -0.0010    20.6267    41.2556     1.0899    14.6405    14.6392     0.0013    52.0000    51.9920    58.003
      9     0.4700     0.4700     0.4700      9.334      5.000  37000.000     10.000    41.2537    36.4596   -23.7863     1.2730    -1.5670    -0.0020    -0.0010    20.6267    41.2556     1.0956    14.6405    14.6392     0.0013    52.0000    52.0320    58.202
     10     0.4725     0.4725     0.4725      9.378      4.000  37000.000     10.000    41.2537    36.3967   -23.9152     1.2730    -1.5670    -0.0020    -0.0010    20.6267    41.2556     1.1014    14.6405    14.6392     0.0013    52.0000    52.0560    58.509
     11     0.4750     0.4750     0.4750      9.328      3.000  37000.000     10.000    41.2537    36.3327   -24.0442     1.2730    -1.5670    -0.0020    -0.0010    20.6267    41.2556     1.1073    14.6405    14.6392     0.0013    52.0000    52.0820    59.376
     12     0.4775     0.4775     0.4775      9.357      4.000  37000.000     10.000    41.2537    36.2687   -24.1731     1.2730    -1.5670    -0.0020    -0.0010    20.6267    41.2556     1.1131    14.6405    14.6392     0.0013    52.0000    52.0920    59.081
     13     0.4800     0.4800     0.4800      9.381      2.000  37000.000     10.000    41.2537    36.2037   -24.3001     1.2730    -1.5670    -0.0020    -0.0010    20.6267    41.2556     1.1189    14.6405    14.6392     0.0013    52.0000    52.0900    58.086
     14     0.4825     0.4825     0.4825      9.308      5.000  37000.000     10.000    41.2537    36.1398   -24.4300     1.2730    -1.5670    -0.0020    -0.0010    20.6267    41.2556     1.1248    14.6405    14.6392     0.0013    52.0000    52.0460    55.922
     15     0.4850     0.4850     0.4850      9.321      0.000  37000.000     10.000    41.2537    36.0758   -24.5580     1.2730    -1.5670    -0.0020    -0.0010    20.6267    41.2556     1.1306    14.6405    14.6392     0.0013    52.0000    52.0420    57.651
     16     0.4875     0.4875     0.4875      9.373      4.000  37000.000     10.000    41.2537    36.0118   -24.6869     1.2730    -1.5670    -0.0020    -0.0010    20.6267    41.2556     1.1364    14.6405    14.6392     0.0013    52.0000    52.0300    58.585
     17     0.4900     0.4900     0.4900      9.278      6.000  37000.000     10.000    41.2537    35.9469   -24.8139     1.2730    -1.5670    -0.0020    -0.0010    20.6267    41.2556     1.1422    14.6405    14.6392     0.0013    52.0000    52.0180    58.562
     18     0.4925     0.4925     0.4925      9.267      5.000  37000.000     10.000    41.2537    35.8819   -24.9428     1.2730    -1.5670    -0.0020    -0.0010    20.6267    41.2556     1.1480    14.6405    14.6392     0.0013    52.0000    52.0100    59.056
     19     0.4951     0.4950     0.4950      9.382      1.000  37000.000     10.000    41.2537    35.8189   -25.0737     1.2730    -1.5670    -0.0020    -0.0010    20.6267    41.2556     1.1539    14.6405    14.6392     0.0013    52.0000    51.9780    58.684
     20     0.4975     0.4975     0.4975      9.360      3.000  37000.000     10.000    41.2537    35.7539   -25.2017     1.2730    -1.5670    -0.0020    -0.0010    20.6267    41.2556     1.1597    14.6405    14.6392     0.0013    52.0000    51.9530    57.876
     21     0.5000     0.5000     0.5000      9.348      4.000  37000.000     10.000    41.2537    35.6890   -25.3306     1.2730    -1.5670    -0.0020    -0.0010    20.6267    41.2556     1.1656    14.6405    14.6392     0.0013    52.0000    51.9250    55.579
     22     0.5025     0.5024     0.5025      9.414      3.000  37000.000     10.000    41.2537    35.6240   -25.4576     1.2730    -1.5670    -0.0020    -0.0010    20.6267    41.2556     1.1713    14.6405    14.6392     0.0013    52.0000    51.9040    54.274
     23     0.5050     0.5050     0.5050      9.406      5.000  37000.000     10.000    41.2537    35.5600   -25.5875     1.2730    -1.5670    -0.0020    -0.0010    20.6267    41.2556     1.1772    14.6405    14.6392     0.0013    52.0000    51.9320    56.276
     24     0.5075     0.5075     0.5075      9.344      2.000  37000.000     10.000    41.2537    35.4970   -25.7154     1.2730    -1.5670    -0.0020    -0.0010    20.6267    41.2556     1.1830    14.6405    14.6392     0.0013    52.0000    52.0050    60.351
     25     0.5100     0.5100     0.5100      9.330      4.000  37000.000     10.000    41.2537    35.4321   -25.8444     1.2730    -1.5670    -0.0020    -0.0010    20.6267    41.2556     1.1888    14.6405    14.6392     0.0013    52.0000    51.9890    59.114
     26     0.5125     0.5125     0.5125      9.355      1.000  37000.000     10.000    41.2537    35.3671   -25.9733     1.2730    -1.5670    -0.0020    -0.0010    20.6267    41.2556     1.1946    14.6405    14.6392     0.0013    52.0000    51.9950    58.344
     27     0.5150     0.5150     0.5150      9.289      1.000  37000.000     10.000    41.2537    35.3022   -26.1032     1.2730    -1.5670    -0.0020    -0.0010    20.6267    41.2556     1.2005    14.6405    14.6392     0.0013    52.0000    52.0160    58.567
     28     0.5175     0.5175     0.5175      9.294      5.000  37000.000     10.000    41.2537    35.2382   -26.2322     1.2730    -1.5670    -0.0020    -0.0010    20.6267    41.2556     1.2063    14.6405    14.6392     0.0013    52.0000    52.0260    59.331
     29     0.5200     0.5200     0.5200      9.339      8.000  37000.000     10.000    41.2537    35.1752   -26.3611     1.2730    -1.5670    -0.0020    -0.0010    20.6267    41.2556     1.2122    14.6405    14.6392     0.0013    52.0000    52.0370    59.547
     30     0.5225     0.5225     0.5225      9.444      5.000  37000.000     10.000    41.2537    35.1112   -26.4891     1.2730    -1.5670    -0.0020    -0.0010    20.6267    41.2556     1.2179    14.6405    14.6392     0.0013    52.0000    52.0480    60.788
     31     0.5250     0.5250     0.5250      9.266      1.000  37000.000     10.000    41.2537    35.0463   -26.6190     1.2730    -1.5670    -0.0020    -0.0010    20.6267    41.2556     1.2238    14.6405    14.6392     0.0013    52.0000    52.0210    57.884
     32     0.5275     0.5275     0.5275      9.343      3.000  37000.000     10.000    41.2537    34.9803   -26.7489     1.2730    -1.5670    -0.0020    -0.0010    20.6267    41.2556     1.2297    14.6405    14.6392     0.0013    52.0000    52.0150    58.192
     33     0.5300     0.5300     0.5300      9.352      3.000  37000.000     10.000    41.2537    34.9163   -26.8769     1.2730    -1.5670    -0.0020    -0.0010    20.6267    41.2556     1.2355    14.6405    14.6392     0.0013    52.0000    52.0010    57.854
     34     0.5325     0.5325     0.5325      9.313      4.000  37000.000     10.000    41.2537    34.8514   -27.0058     1.2730    -1.5670    -0.0020    -0.0010    20.6267    41.2556     1.2413    14.6405    14.6392     0.0013    52.0000    52.0530    62.219
     35     0.5350     0.5350     0.5350      9.397      3.000  37000.000     10.000    41.2537    34.7874   -27.1357     1.2730    -1.5670    -0.0020    -0.0010    20.6267    41.2556     1.2471    14.6405    14.6392     0.0013    52.0000    51.9950    58.841
     36     0.5375     0.5375     0.5375      9.379      2.000  37000.000     10.000    41.2537    34.7224   -27.2646     1.2730    -1.5670    -0.0020    -0.0010    20.6267    41.2556     1.2529    14.6405    14.6392     0.0013    52.0000    51.9960    59.148
     37     0.5400     0.5400     0.5400      9.414      4.000  37000.000     10.000    41.2537    34.6575   -27.3946     1.2730    -1.5670    -0.0020    -0.0010    20.6267    41.2556     1.2588    14.6405    14.6392     0.0013    52.0000    51.9730    58.587
     38     0.5425     0.5425     0.5425      9.406      3.000  37000.000     10.000    41.2537    34.5925   -27.5235     1.2730    -1.5670    -0.0020    -0.0010    20.6267    41.2556     1.2646    14.6405    14.6392     0.0013    52.0000    51.9820    58.848
     39     0.5451     0.5450     0.5450      9.321      3.000  37000.000     10.000    41.2537    34.5285   -27.6544     1.2730    -1.5670    -0.0020    -0.0010    20.6267    41.2556     1.2705    14.6405    14.6392     0.0013    52.0000    51.9820    58.718
     40     0.5475     0.5475     0.5475      9.349      3.000  37000.000     10.000    41.2537    34.4636   -27.7814     1.2730    -1.5670    -0.0020    -0.0010    20.6267    41.2556     1.2762    14.6405    14.6392     0.0013    52.0000    51.9540    56.504
     41     0.5500     0.5500     0.5500      9.338      4.000  37000.000     10.000    41.2537    34.3986   -27.9113     1.2730    -1.5670    -0.0020    -0.0010    20.6267    41.2556     1.2821    14.6405    14.6392     0.0013    52.0000    51.9940    58.889
# Sum of Counts = 134
# Center of Mass = 0.501181+/-0.061280
# Full Width Half-Maximum = 0.057731+/-0.020340
# 6:41:10 PM  11/9/2003   scan completed.
