# scan = 33
# date = 11/8/2003
# time = 10:19:35 PM
# experiment = TbPtIn single crystal;  100 plane
# experiment_number = 41
# command = scan h 0.3 2.08 .005 k 0.3 2.08 .005 l 0.3 2.08 .005 preset mcu 6
# builtin_command = scan h 0.3 2.08 .005 k 0.3 2.08 .005 l 0.3 2.08 .005 preset mcu 6
# users = O.Garlea, C.Stassis, J.L.Zarestky
# local_contact = J.L.Zarestky
# scan_title = hhh scan
# monochromator = PG002
# analyzer = Pg002
# sense = +-+
# collimation = 48-40-40-102
# samplename = TbPtIn
# sampletype = crystal
# samplemosaic = 30.000000
# latticeconstants = 7.554017,7.554017,3.847681,90.000000,90.000000,120.000000
# ubmatrix = -0.008230,-0.004834,0.259516,-0.134256,-0.130074,-0.012979,0.072618,-0.080146,0.005414
# mode = 0
# plane_normal = -0.022217,-0.027363,0.999379
# ubconf = C:\User\exp41\UBConf\UB08Nov2003_100555PM.ini
# preset_type = normal 
# preset_channel = mcu
# preset_value = 6.000000
# def_x = h
# def_y = detector
# col_headers = 
#   Pt.          h          k          l       time   detector    monitor        mcu         m2         s1         s2        sgl        sgu        stl        stu         a1         a2          q         ei         ef          e       temp    coldtip    tsample
      1     0.3001     0.3000     0.3000      5.652      1.000  22200.000      6.000    41.2537    40.7943   -15.1200     1.2730    -1.5670    -0.0020    -0.0010    20.6267    41.2556     0.6994    14.6405    14.6392     0.0013   295.0000     9.7978     9.513
      2     0.3050     0.3050     0.3050      5.677      1.000  22200.000      6.000    41.2537    40.6644   -15.3709     1.2730    -1.5670    -0.0020    -0.0010    20.6267    41.2556     0.7109    14.6405    14.6392     0.0013   295.0000     9.7350     9.519
      3     0.3100     0.3100     0.3100      5.705      1.000  22200.000      6.000    41.2537    40.5374   -15.6249     1.2730    -1.5670    -0.0020    -0.0010    20.6267    41.2556     0.7226    14.6405    14.6392     0.0013   295.0000     9.8023     9.542
      4     0.3150     0.3150     0.3150      5.676      3.000  22200.000      6.000    41.2537    40.4114   -15.8778     1.2730    -1.5670    -0.0020    -0.0010    20.6267    41.2556     0.7342    14.6405    14.6392     0.0013   295.0000     9.7329     9.493
      5     0.3201     0.3201     0.3200      5.652      1.000  22200.000      6.000    41.2537    40.2854   -16.1357     1.2730    -1.5670    -0.0020    -0.0010    20.6267    41.2556     0.7461    14.6405    14.6392     0.0013   295.0000     9.7329     9.493
      6     0.3250     0.3250     0.3250      5.671      1.000  22200.000      6.000    41.2537    40.1565   -16.3867     1.2730    -1.5670    -0.0020    -0.0010    20.6267    41.2556     0.7576    14.6405    14.6392     0.0013   295.0000     9.8010     9.508
      7     0.3300     0.3300     0.3300      5.631      2.000  22200.000      6.000    41.2537    40.0315   -16.6396     1.2730    -1.5670    -0.0020    -0.0010    20.6267    41.2556     0.7692    14.6405    14.6392     0.0013   295.0000     9.7297     9.489
      8     0.3350     0.3350     0.3350      5.528      2.000  22200.000      6.000    41.2537    39.9055   -16.8936     1.2730    -1.5670    -0.0020    -0.0010    20.6267    41.2556     0.7809    14.6405    14.6392     0.0013   295.0000     9.8037     9.502
      9     0.3400     0.3400     0.3400      5.662      1.000  22200.000      6.000    41.2537    39.7766   -17.1475     1.2730    -1.5670    -0.0020    -0.0010    20.6267    41.2556     0.7925    14.6405    14.6392     0.0013   295.0000     9.8037     9.502
     10     0.3450     0.3450     0.3450      5.627      1.000  22200.000      6.000    41.2537    39.6506   -17.4015     1.2730    -1.5670    -0.0020    -0.0010    20.6267    41.2556     0.8042    14.6405    14.6392     0.0013   295.0000     9.7353     9.533
     11     0.3500     0.3500     0.3500      5.667      2.000  22200.000      6.000    41.2537    39.5236   -17.6564     1.2730    -1.5670    -0.0020    -0.0010    20.6267    41.2556     0.8159    14.6405    14.6392     0.0013   295.0000     9.8009     9.549
     12     0.3550     0.3549     0.3550      5.602      0.000  22200.000      6.000    41.2537    39.3957   -17.9093     1.2730    -1.5670    -0.0020    -0.0010    20.6267    41.2556     0.8275    14.6405    14.6392     0.0013   295.0000     9.7331     9.525
     13     0.3600     0.3600     0.3600      5.637      2.000  22200.000      6.000    41.2537    39.2707   -18.1662     1.2730    -1.5670    -0.0020    -0.0010    20.6267    41.2556     0.8392    14.6405    14.6392     0.0013   295.0000     9.7954     9.523
     14     0.3650     0.3650     0.3650      5.641      0.000  22200.000      6.000    41.2537    39.1427   -18.4202     1.2730    -1.5670    -0.0020    -0.0010    20.6267    41.2556     0.8509    14.6405    14.6392     0.0013   295.0000     9.7954     9.523
     15     0.3700     0.3700     0.3700      5.610      3.000  22200.000      6.000    41.2537    39.0157   -18.6751     1.2730    -1.5670    -0.0020    -0.0010    20.6267    41.2556     0.8625    14.6405    14.6392     0.0013   295.0000     9.7251     9.478
     16     0.3749     0.3749     0.3750      5.606      0.000  22200.000      6.000    41.2537    38.8878   -18.9261     1.2730    -1.5670    -0.0020    -0.0010    20.6267    41.2556     0.8740    14.6405    14.6392     0.0013   295.0000     9.7981     9.498
     17     0.3800     0.3800     0.3800      5.610      0.000  22200.000      6.000    41.2537    38.7589   -19.1849     1.2730    -1.5670    -0.0020    -0.0010    20.6267    41.2556     0.8859    14.6405    14.6392     0.0013   295.0000     9.7367     9.524
     18     0.3850     0.3850     0.3850      5.684      0.000  22200.000      6.000    41.2537    38.6329   -19.4379     1.2730    -1.5670    -0.0020    -0.0010    20.6267    41.2556     0.8974    14.6405    14.6392     0.0013   295.0000     9.7367     9.524
     19     0.3900     0.3900     0.3900      5.603      2.000  22200.000      6.000    41.2537    38.5059   -19.6938     1.2730    -1.5670    -0.0020    -0.0010    20.6267    41.2556     0.9091    14.6405    14.6392     0.0013   295.0000     9.8047     9.515
     20     0.3950     0.3950     0.3950      5.634      2.000  22200.000      6.000    41.2537    38.3770   -19.9487     1.2730    -1.5670    -0.0020    -0.0010    20.6267    41.2556     0.9208    14.6405    14.6392     0.0013   295.0000     9.7418     9.497
     21     0.4000     0.4000     0.4000      5.645      0.000  22200.000      6.000    41.2537    38.2510   -20.2036     1.2730    -1.5670    -0.0020    -0.0010    20.6267    41.2556     0.9324    14.6405    14.6392     0.0013   295.0000     9.7459     9.525
     22     0.4050     0.4050     0.4050      5.633      0.000  22200.000      6.000    41.2537    38.1250   -20.4576     1.2730    -1.5670    -0.0020    -0.0010    20.6267    41.2556     0.9440    14.6405    14.6392     0.0013   295.0000     9.7459     9.525
     23     0.4100     0.4100     0.4100      5.635      2.000  22200.000      6.000    41.2537    37.9970   -20.7154     1.2730    -1.5670    -0.0020    -0.0010    20.6267    41.2556     0.9558    14.6405    14.6392     0.0013   295.0000     9.8124     9.562
     24     0.4150     0.4150     0.4150      5.681      0.000  22200.000      6.000    41.2537    37.8691   -20.9684     1.2730    -1.5670    -0.0020    -0.0010    20.6267    41.2556     0.9673    14.6405    14.6392     0.0013   295.0000     9.8099     9.500
     25     0.4200     0.4200     0.4200      5.760      0.000  22200.000      6.000    41.2537    37.7402   -21.2263     1.2730    -1.5670    -0.0020    -0.0010    20.6267    41.2556     0.9791    14.6405    14.6392     0.0013   295.0000     9.7584     9.512
     26     0.4250     0.4250     0.4250      5.595      3.000  22200.000      6.000    41.2537    37.6132   -21.4812     1.2730    -1.5670    -0.0020    -0.0010    20.6267    41.2556     0.9907    14.6405    14.6392     0.0013   295.0000     9.7584     9.512
     27     0.4300     0.4300     0.4300      5.624      2.000  22200.000      6.000    41.2537    37.4852   -21.7381     1.2730    -1.5670    -0.0020    -0.0010    20.6267    41.2556     1.0024    14.6405    14.6392     0.0013   295.0000     9.8178     9.520
     28     0.4349     0.4349     0.4350      5.665      2.000  22200.000      6.000    41.2537    37.3563   -21.9900     1.2730    -1.5670    -0.0020    -0.0010    20.6267    41.2556     1.0139    14.6405    14.6392     0.0013   295.0000     9.7685     9.529
     29     0.4400     0.4400     0.4400      5.628      0.000  22200.000      6.000    41.2537    37.2293   -22.2499     1.2730    -1.5670    -0.0020    -0.0010    20.6267    41.2556     1.0257    14.6405    14.6392     0.0013   295.0000     9.8204     9.524
     30     0.4450     0.4450     0.4450      5.630      3.000  22200.000      6.000    41.2537    37.1024   -22.5038     1.2730    -1.5670    -0.0020    -0.0010    20.6267    41.2556     1.0373    14.6405    14.6392     0.0013   295.0000     9.8204     9.524
     31     0.4500     0.4500     0.4500      5.617      1.000  22200.000      6.000    41.2537    36.9724   -22.7607     1.2730    -1.5670    -0.0020    -0.0010    20.6267    41.2556     1.0490    14.6405    14.6392     0.0013   295.0000     9.8273     9.560
     32     0.4550     0.4550     0.4550      5.645      1.000  22200.000      6.000    41.2537    36.8455   -23.0166     1.2730    -1.5670    -0.0020    -0.0010    20.6267    41.2556     1.0606    14.6405    14.6392     0.0013   295.0000     9.8273     9.523
     33     0.4600     0.4600     0.4600      5.692      0.000  22200.000      6.000    41.2537    36.7165   -23.2745     1.2730    -1.5670    -0.0020    -0.0010    20.6267    41.2556     1.0723    14.6405    14.6392     0.0013   295.0000     9.7792     9.532
     34     0.4651     0.4650     0.4650      5.648      1.000  22200.000      6.000    41.2537    36.5886   -23.5324     1.2730    -1.5670    -0.0020    -0.0010    20.6267    41.2556     1.0840    14.6405    14.6392     0.0013   295.0000     9.8335     9.614
     35     0.4701     0.4700     0.4700      5.590      2.000  22200.000      6.000    41.2537    36.4606   -23.7893     1.2730    -1.5670    -0.0020    -0.0010    20.6267    41.2556     1.0957    14.6405    14.6392     0.0013   295.0000     9.8335     9.614
     36     0.4750     0.4750     0.4750      5.586      1.000  22200.000      6.000    41.2537    36.3327   -24.0432     1.2730    -1.5670    -0.0020    -0.0010    20.6267    41.2556     1.1072    14.6405    14.6392     0.0013   295.0000     9.7776     9.526
     37     0.4800     0.4800     0.4800      5.621      1.000  22200.000      6.000    41.2537    36.2037   -24.3011     1.2730    -1.5670    -0.0020    -0.0010    20.6267    41.2556     1.1189    14.6405    14.6392     0.0013   295.0000     9.8292     9.530
     38     0.4850     0.4850     0.4850      5.623     64.000  22200.000      6.000    41.2537    36.0758   -24.5580     1.2730    -1.5670    -0.0020    -0.0010    20.6267    41.2556     1.1306    14.6405    14.6392     0.0013   295.0000     9.8377     9.589
     39     0.4900     0.4900     0.4900      5.603    688.000  22200.000      6.000    41.2537    35.9469   -24.8148     1.2730    -1.5670    -0.0020    -0.0010    20.6267    41.2556     1.1422    14.6405    14.6392     0.0013   295.0000     9.8377     9.589
     40     0.4950     0.4950     0.4950      5.602   1749.000  22200.000      6.000    41.2537    35.8179   -25.0717     1.2730    -1.5670    -0.0020    -0.0010    20.6267    41.2556     1.1539    14.6405    14.6392     0.0013   295.0000     9.8379     9.545
     41     0.5000     0.5000     0.5000      5.578   2997.000  22200.000      6.000    41.2537    35.6890   -25.3306     1.2730    -1.5670    -0.0020    -0.0010    20.6267    41.2556     1.1656    14.6405    14.6392     0.0013   295.0000     9.7911     9.547
     42     0.5050     0.5050     0.5050      5.608   2166.000  22200.000      6.000    41.2537    35.5600   -25.5865     1.2730    -1.5670    -0.0020    -0.0010    20.6267    41.2556     1.1772    14.6405    14.6392     0.0013   295.0000     9.8389     9.568
     43     0.5100     0.5100     0.5100      5.673    409.000  22200.000      6.000    41.2537    35.4321   -25.8444     1.2730    -1.5670    -0.0020    -0.0010    20.6267    41.2556     1.1888    14.6405    14.6392     0.0013   295.0000     9.8389     9.568
     44     0.5150     0.5150     0.5150      5.616     75.000  22200.000      6.000    41.2537    35.3031   -26.1022     1.2730    -1.5670    -0.0020    -0.0010    20.6267    41.2556     1.2005    14.6405    14.6392     0.0013   295.0000     9.7949     9.547
     45     0.5200     0.5200     0.5200      5.605      6.000  22200.000      6.000    41.2537    35.1742   -26.3601     1.2730    -1.5670    -0.0020    -0.0010    20.6267    41.2556     1.2121    14.6405    14.6392     0.0013   295.0000     9.8339     9.535
     46     0.5250     0.5250     0.5250      5.613      1.000  22200.000      6.000    41.2537    35.0463   -26.6190     1.2730    -1.5670    -0.0020    -0.0010    20.6267    41.2556     1.2238    14.6405    14.6392     0.0013   295.0000     9.8387     9.562
     47     0.5300     0.5300     0.5300      5.599      1.000  22200.000      6.000    41.2537    34.9163   -26.8769     1.2730    -1.5670    -0.0020    -0.0010    20.6267    41.2556     1.2355    14.6405    14.6392     0.0013   295.0000     9.8387     9.562
     48     0.5350     0.5350     0.5350      5.687      1.000  22200.000      6.000    41.2537    34.7874   -27.1357     1.2730    -1.5670    -0.0020    -0.0010    20.6267    41.2556     1.2471    14.6405    14.6392     0.0013   295.0000     9.8386     9.555
     49     0.5400     0.5400     0.5400      5.632      1.000  22200.000      6.000    41.2537    34.6585   -27.3936     1.2730    -1.5670    -0.0020    -0.0010    20.6267    41.2556     1.2588    14.6405    14.6392     0.0013   295.0000     9.8038     9.557
     50     0.5450     0.5450     0.5450      5.685      0.000  22200.000      6.000    41.2537    34.5276   -27.6534     1.2730    -1.5670    -0.0020    -0.0010    20.6267    41.2556     1.2705    14.6405    14.6392     0.0013   295.0000     9.8344     9.550
     51     0.5500     0.5499     0.5500      5.653      2.000  22200.000      6.000    41.2537    34.3976   -27.9103     1.2730    -1.5670    -0.0020    -0.0010    20.6267    41.2556     1.2820    14.6405    14.6392     0.0013   295.0000     9.8344     9.550
     52     0.5551     0.5550     0.5550      5.637      2.000  22200.000      6.000    41.2537    34.2707   -28.1721     1.2730    -1.5670    -0.0020    -0.0010    20.6267    41.2556     1.2938    14.6405    14.6392     0.0013   295.0000     9.8046     9.586
     53     0.5600     0.5600     0.5600      5.710      1.000  22200.000      6.000    41.2537    34.1407   -28.4290     1.2730    -1.5670    -0.0020    -0.0010    20.6267    41.2556     1.3054    14.6405    14.6392     0.0013   295.0000     9.8347     9.549
     54     0.5651     0.5650     0.5650      5.616      0.000  22200.000      6.000    41.2537    34.0118   -28.6898     1.2730    -1.5670    -0.0020    -0.0010    20.6267    41.2556     1.3171    14.6405    14.6392     0.0013   295.0000     9.8367     9.555
     55     0.5700     0.5699     0.5700      5.709      1.000  22200.000      6.000    41.2537    33.8819   -28.9467     1.2730    -1.5670    -0.0020    -0.0010    20.6267    41.2556     1.3286    14.6405    14.6392     0.0013   295.0000     9.8367     9.555
     56     0.5751     0.5750     0.5750      5.681      1.000  22200.000      6.000    41.2537    33.7530   -29.2085     1.2730    -1.5670    -0.0020    -0.0010    20.6267    41.2556     1.3404    14.6405    14.6392     0.0013   295.0000     9.8362     9.573
     57     0.5800     0.5799     0.5800      5.674      2.000  22200.000      6.000    41.2537    33.6211   -29.4664     1.2730    -1.5670    -0.0020    -0.0010    20.6267    41.2556     1.3520    14.6405    14.6392     0.0013   295.0000     9.8182     9.565
     58     0.5850     0.5850     0.5850      5.656      1.000  22200.000      6.000    41.2537    33.4921   -29.7282     1.2730    -1.5670    -0.0020    -0.0010    20.6267    41.2556     1.3637    14.6405    14.6392     0.0013   295.0000     9.8254     9.547
     59     0.5900     0.5900     0.5900      5.609      3.000  22200.000      6.000    41.2537    33.3632   -29.9861     1.2730    -1.5670    -0.0020    -0.0010    20.6267    41.2556     1.3753    14.6405    14.6392     0.0013   295.0000     9.8233     9.587
     60     0.5950     0.5950     0.5950      5.614      0.000  22200.000      6.000    41.2537    33.2333   -30.2479     1.2730    -1.5670    -0.0020    -0.0010    20.6267    41.2556     1.3870    14.6405    14.6392     0.0013   295.0000     9.8233     9.587
     61     0.6000     0.6000     0.6000      5.678      1.000  22200.000      6.000    41.2537    33.1004   -30.5087     1.2730    -1.5670    -0.0020    -0.0010    20.6267    41.2556     1.3987    14.6405    14.6392     0.0013   295.0000     9.8335     9.571
     62     0.6051     0.6050     0.6050      5.661      2.000  22200.000      6.000    41.2537    32.9715   -30.7696     1.2730    -1.5670    -0.0020    -0.0010    20.6267    41.2556     1.4104    14.6405    14.6392     0.0013   295.0000     9.8253     9.562
     63     0.6101     0.6100     0.6100      5.679      1.000  22200.000      6.000    41.2537    32.8415   -31.0304     1.2730    -1.5670    -0.0020    -0.0010    20.6267    41.2556     1.4220    14.6405    14.6392     0.0013   295.0000     9.8308     9.582
     64     0.6151     0.6151     0.6150      5.640      0.000  22200.000      6.000    41.2537    32.7106   -31.2932     1.2730    -1.5670    -0.0020    -0.0010    20.6267    41.2556     1.4338    14.6405    14.6392     0.0013   295.0000     9.8308     9.582
     65     0.6200     0.6199     0.6200      5.673      0.000  22200.000      6.000    41.2537    32.5787   -31.5491     1.2730    -1.5670    -0.0020    -0.0010    20.6267    41.2556     1.4452    14.6405    14.6392     0.0013   295.0000     9.8247     9.554
     66     0.6250     0.6250     0.6250      5.630      2.000  22200.000      6.000    41.2537    32.4498   -31.8119     1.2730    -1.5670    -0.0020    -0.0010    20.6267    41.2556     1.4569    14.6405    14.6392     0.0013   295.0000     9.8303     9.561
     67     0.6300     0.6300     0.6300      5.623      0.000  22200.000      6.000    41.2537    32.3189   -32.0737     1.2730    -1.5670    -0.0020    -0.0010    20.6267    41.2556     1.4686    14.6405    14.6392     0.0013   295.0000     9.8244     9.560
     68     0.6350     0.6350     0.6350      5.664      1.000  22200.000      6.000    41.2537    32.1890   -32.3345     1.2730    -1.5670    -0.0020    -0.0010    20.6267    41.2556     1.4802    14.6405    14.6392     0.0013   295.0000     9.8244     9.560
     69     0.6400     0.6399     0.6400      5.705      0.000  22200.000      6.000    41.2537    32.0571   -32.5944     1.2730    -1.5670    -0.0020    -0.0010    20.6267    41.2556     1.4918    14.6405    14.6392     0.0013   295.0000     9.8288     9.574
     70     0.6450     0.6450     0.6450      5.693      1.000  22200.000      6.000    41.2537    31.9262   -32.8591     1.2730    -1.5670    -0.0020    -0.0010    20.6267    41.2556     1.5036    14.6405    14.6392     0.0013   295.0000     9.8243     9.560
     71     0.6500     0.6500     0.6500      5.689      2.000  22200.000      6.000    41.2537    31.7953   -33.1209     1.2730    -1.5670    -0.0020    -0.0010    20.6267    41.2556     1.5152    14.6405    14.6392     0.0013   295.0000     9.8351     9.587
