# scan = 337
# date = 11/11/2003
# time = 8:46:50 AM
# experiment = TbPtIn single crystal;  100 plane
# experiment_number = 41
# command = scan h 0.3 2.08 .005 k 0.3 2.08 .005 l 0.3 2.08 .005 preset mcu 6
# builtin_command = scan h 0.3 2.08 .005 k 0.3 2.08 .005 l 0.3 2.08 .005 preset mcu 6
# users = O.Garlea, C.Stassis, J.L.Zarestky
# local_contact = J.L.Zarestky
# scan_title = hhh scan, base temp, H = 3 T
# monochromator = PG002
# analyzer = Pg002
# sense = +-+
# collimation = 48-40-40-102
# samplename = TbPtIn
# sampletype = crystal
# samplemosaic = 30.000000
# latticeconstants = 7.554053,7.554053,3.846679,90.000000,90.000000,120.000000
# ubmatrix = -0.005362,-0.005623,0.259740,-0.129577,-0.134798,-0.010795,0.080912,-0.071857,-0.000073
# mode = 0
# plane_normal = 0.001702,0.034158,0.999415
# ubconf = C:\User\exp41\UBConf\UB10Nov2003_64050PM.ini
# preset_type = normal 
# preset_channel = mcu
# preset_value = 6.000000
# def_x = h
# def_y = detector
# col_headers = 
#   Pt.          h          k          l       time   detector    monitor        mcu         m2         s1         s2        sgl        sgu        stl        stu         a1         a2          q         ei         ef          e       temp    coldtip    tsample
      1     0.3000     0.3001     0.3000      5.539     28.000  22200.000      6.000    41.2537    40.3248   -15.1219    -0.0975     1.9545     1.0050    -3.9990    20.6267    41.2566     0.6995    14.6405    14.6385     0.0020   295.0000     4.2187     4.185
      2     0.3049     0.3050     0.3050      5.510     20.000  22200.000      6.000    41.2537    40.2008   -15.3719    -0.0975     1.9545     1.0050    -3.9990    20.6267    41.2566     0.7110    14.6405    14.6385     0.0020   295.0000     4.2202     4.183
      3     0.3100     0.3100     0.3100      5.513     27.000  22200.000      6.000    41.2537    40.0738   -15.6269    -0.0975     1.9545     1.0050    -3.9990    20.6267    41.2566     0.7227    14.6405    14.6385     0.0020   295.0000     4.2187     4.191
      4     0.3149     0.3150     0.3150      5.506     18.000  22200.000      6.000    41.2537    39.9478   -15.8798    -0.0975     1.9545     1.0050    -3.9990    20.6267    41.2566     0.7343    14.6405    14.6385     0.0020   295.0000     4.2187     4.191
      5     0.3200     0.3201     0.3200      5.610     22.000  22200.000      6.000    41.2537    39.8209   -16.1377    -0.0975     1.9545     1.0050    -3.9990    20.6267    41.2566     0.7462    14.6405    14.6385     0.0020   295.0000     4.2217     4.165
      6     0.3250     0.3250     0.3250      5.644     19.000  22200.000      6.000    41.2537    39.6939   -16.3887    -0.0975     1.9545     1.0050    -3.9990    20.6267    41.2566     0.7577    14.6405    14.6385     0.0020   295.0000     4.2196     4.186
      7     0.3300     0.3300     0.3300      5.574     16.000  22200.000      6.000    41.2537    39.5669   -16.6426    -0.0975     1.9545     1.0050    -3.9990    20.6267    41.2566     0.7694    14.6405    14.6385     0.0020   295.0000     4.2190     4.183
      8     0.3350     0.3350     0.3350      5.559     18.000  22200.000      6.000    41.2537    39.4400   -16.8965    -0.0975     1.9545     1.0050    -3.9990    20.6267    41.2566     0.7810    14.6405    14.6385     0.0020   295.0000     4.2190     4.183
      9     0.3399     0.3400     0.3400      5.598     22.000  22200.000      6.000    41.2537    39.3130   -17.1495    -0.0975     1.9545     1.0050    -3.9990    20.6267    41.2566     0.7926    14.6405    14.6385     0.0020   295.0000     4.2174     4.185
     10     0.3450     0.3450     0.3450      5.532     25.000  22200.000      6.000    41.2537    39.1870   -17.4044    -0.0975     1.9545     1.0050    -3.9990    20.6267    41.2566     0.8043    14.6405    14.6385     0.0020   295.0000     4.2184     4.183
     11     0.3500     0.3500     0.3500      5.599      8.000  22200.000      6.000    41.2537    39.0600   -17.6593    -0.0975     1.9545     1.0050    -3.9990    20.6267    41.2566     0.8160    14.6405    14.6385     0.0020   295.0000     4.2196     4.184
     12     0.3549     0.3550     0.3550      5.560     16.000  22200.000      6.000    41.2537    38.9321   -17.9113    -0.0975     1.9545     1.0050    -3.9990    20.6267    41.2566     0.8275    14.6405    14.6385     0.0020   295.0000     4.2133     4.187
     13     0.3600     0.3601     0.3600      5.526     22.000  22200.000      6.000    41.2537    38.8051   -18.1692    -0.0975     1.9545     1.0050    -3.9990    20.6267    41.2566     0.8394    14.6405    14.6385     0.0020   295.0000     4.2133     4.187
     14     0.3650     0.3650     0.3650      5.573     25.000  22200.000      6.000    41.2537    38.6791   -18.4221    -0.0975     1.9545     1.0050    -3.9990    20.6267    41.2566     0.8509    14.6405    14.6385     0.0020   295.0000     4.2200     4.183
     15     0.3700     0.3701     0.3700      5.578     21.000  22200.000      6.000    41.2537    38.5502   -18.6780    -0.0975     1.9545     1.0050    -3.9990    20.6267    41.2566     0.8627    14.6405    14.6385     0.0020   295.0000     4.2216     4.186
     16     0.3749     0.3750     0.3750      5.553     17.000  22200.000      6.000    41.2537    38.4242   -18.9300    -0.0975     1.9545     1.0050    -3.9990    20.6267    41.2566     0.8742    14.6405    14.6385     0.0020   295.0000     4.2188     4.184
     17     0.3800     0.3801     0.3800      5.557     25.000  22200.000      6.000    41.2537    38.2982   -19.1869    -0.0975     1.9545     1.0050    -3.9990    20.6267    41.2566     0.8859    14.6405    14.6385     0.0020   295.0000     4.2188     4.184
     18     0.3849     0.3850     0.3850      5.559     17.000  22200.000      6.000    41.2537    38.1693   -19.4398    -0.0975     1.9545     1.0050    -3.9990    20.6267    41.2566     0.8975    14.6405    14.6385     0.0020   295.0000     4.2176     4.191
     19     0.3900     0.3901     0.3900      5.620     17.000  22200.000      6.000    41.2537    38.0433   -19.6967    -0.0975     1.9545     1.0050    -3.9990    20.6267    41.2566     0.9093    14.6405    14.6385     0.0020   295.0000     4.2171     4.183
     20     0.3949     0.3950     0.3950      5.512     25.000  22200.000      6.000    41.2537    37.9154   -19.9507    -0.0975     1.9545     1.0050    -3.9990    20.6267    41.2566     0.9209    14.6405    14.6385     0.0020   295.0000     4.2197     4.185
     21     0.4000     0.4001     0.4000      5.513     20.000  22200.000      6.000    41.2537    37.7884   -20.2076    -0.0975     1.9545     1.0050    -3.9990    20.6267    41.2566     0.9326    14.6405    14.6385     0.0020   295.0000     4.2197     4.185
     22     0.4050     0.4050     0.4050      5.535     18.000  22200.000      6.000    41.2537    37.6604   -20.4615    -0.0975     1.9545     1.0050    -3.9990    20.6267    41.2566     0.9442    14.6405    14.6385     0.0020   295.0000     4.2237     4.180
     23     0.4100     0.4101     0.4100      5.580     14.000  22200.000      6.000    41.2537    37.5305   -20.7184    -0.0975     1.9545     1.0050    -3.9990    20.6267    41.2566     0.9559    14.6405    14.6385     0.0020   295.0000     4.2177     4.184
     24     0.4149     0.4150     0.4150      5.579     12.000  22200.000      6.000    41.2537    37.4045   -20.9713    -0.0975     1.9545     1.0050    -3.9990    20.6267    41.2566     0.9675    14.6405    14.6385     0.0020   295.0000     4.2174     4.184
     25     0.4200     0.4201     0.4200      5.628     13.000  22200.000      6.000    41.2537    37.2766   -21.2292    -0.0975     1.9545     1.0050    -3.9990    20.6267    41.2566     0.9792    14.6405    14.6385     0.0020   295.0000     4.2207     4.182
     26     0.4250     0.4251     0.4250      5.556     13.000  22200.000      6.000    41.2537    37.1496   -21.4851    -0.0975     1.9545     1.0050    -3.9990    20.6267    41.2566     0.9909    14.6405    14.6385     0.0020   295.0000     4.2207     4.182
     27     0.4300     0.4300     0.4300      5.566     17.000  22200.000      6.000    41.2537    37.0207   -21.7400    -0.0975     1.9545     1.0050    -3.9990    20.6267    41.2566     1.0025    14.6405    14.6385     0.0020   295.0000     4.2176     4.189
     28     0.4349     0.4350     0.4350      5.566     17.000  22200.000      6.000    41.2537    36.8937   -21.9940    -0.0975     1.9545     1.0050    -3.9990    20.6267    41.2566     1.0141    14.6405    14.6385     0.0020   295.0000     4.2188     4.185
     29     0.4400     0.4401     0.4400      5.570     22.000  22200.000      6.000    41.2537    36.7657   -22.2528    -0.0975     1.9545     1.0050    -3.9990    20.6267    41.2566     1.0259    14.6405    14.6385     0.0020   295.0000     4.2194     4.184
     30     0.4450     0.4450     0.4450      5.427     13.000  22200.000      6.000    41.2537    36.6388   -22.5078    -0.0975     1.9545     1.0050    -3.9990    20.6267    41.2566     1.0375    14.6405    14.6385     0.0020   295.0000     4.2194     4.184
     31     0.4500     0.4500     0.4500      5.590     17.000  22200.000      6.000    41.2537    36.5089   -22.7646    -0.0975     1.9545     1.0050    -3.9990    20.6267    41.2566     1.0491    14.6405    14.6385     0.0020   295.0000     4.2221     4.184
     32     0.4550     0.4550     0.4550      5.503     12.000  22200.000      6.000    41.2537    36.3819   -23.0206    -0.0975     1.9545     1.0050    -3.9990    20.6267    41.2566     1.0608    14.6405    14.6385     0.0020   295.0000     4.2207     4.181
     33     0.4599     0.4600     0.4600      5.470     15.000  22200.000      6.000    41.2537    36.2539   -23.2765    -0.0975     1.9545     1.0050    -3.9990    20.6267    41.2566     1.0724    14.6405    14.6385     0.0020   295.0000     4.2195     4.184
     34     0.4650     0.4651     0.4650      5.557     22.000  22200.000      6.000    41.2537    36.1260   -23.5363    -0.0975     1.9545     1.0050    -3.9990    20.6267    41.2566     1.0842    14.6405    14.6385     0.0020   295.0000     4.2195     4.184
     35     0.4700     0.4701     0.4700      5.610     10.000  22200.000      6.000    41.2537    35.9980   -23.7932    -0.0975     1.9545     1.0050    -3.9990    20.6267    41.2566     1.0959    14.6405    14.6385     0.0020   295.0000     4.2201     4.175
     36     0.4749     0.4750     0.4750      5.531      9.000  22200.000      6.000    41.2537    35.8681   -24.0461    -0.0975     1.9545     1.0050    -3.9990    20.6267    41.2566     1.1074    14.6405    14.6385     0.0020   295.0000     4.2219     4.182
     37     0.4799     0.4800     0.4800      5.573     22.000  22200.000      6.000    41.2537    35.7402   -24.3040    -0.0975     1.9545     1.0050    -3.9990    20.6267    41.2566     1.1190    14.6405    14.6385     0.0020   295.0000     4.2185     4.182
     38     0.4850     0.4851     0.4850      5.565    172.000  22200.000      6.000    41.2537    35.6112   -24.5619    -0.0975     1.9545     1.0050    -3.9990    20.6267    41.2566     1.1307    14.6405    14.6385     0.0020   295.0000     4.2164     4.198
     39     0.4900     0.4900     0.4900      5.544    704.000  22200.000      6.000    41.2537    35.4833   -24.8188    -0.0975     1.9545     1.0050    -3.9990    20.6267    41.2566     1.1424    14.6405    14.6385     0.0020   295.0000     4.2164     4.198
     40     0.4949     0.4950     0.4950      5.585   2158.000  22200.000      6.000    41.2537    35.3543   -25.0747    -0.0975     1.9545     1.0050    -3.9990    20.6267    41.2566     1.1540    14.6405    14.6385     0.0020   295.0000     4.2272     4.170
     41     0.5000     0.5001     0.5000      5.552   4917.000  22200.000      6.000    41.2537    35.2254   -25.3345    -0.0975     1.9545     1.0050    -3.9990    20.6267    41.2566     1.1657    14.6405    14.6385     0.0020   295.0000     4.2211     4.185
     42     0.5050     0.5051     0.5050      5.498   2157.000  22200.000      6.000    41.2537    35.0994   -25.5914    -0.0975     1.9545     1.0050    -3.9990    20.6267    41.2566     1.1774    14.6405    14.6385     0.0020   295.0000     4.2211     4.183
     43     0.5099     0.5100     0.5100      5.560    609.000  22200.000      6.000    41.2537    34.9695   -25.8483    -0.0975     1.9545     1.0050    -3.9990    20.6267    41.2566     1.1890    14.6405    14.6385     0.0020   295.0000     4.2211     4.183
     44     0.5149     0.5150     0.5150      5.614     99.000  22200.000      6.000    41.2537    34.8406   -26.1062    -0.0975     1.9545     1.0050    -3.9990    20.6267    41.2566     1.2006    14.6405    14.6385     0.0020   295.0000     4.2229     4.194
     45     0.5199     0.5200     0.5200      5.602     28.000  22200.000      6.000    41.2537    34.7116   -26.3641    -0.0975     1.9545     1.0050    -3.9990    20.6267    41.2566     1.2123    14.6405    14.6385     0.0020   295.0000     4.2170     4.183
     46     0.5249     0.5250     0.5250      5.559     16.000  22200.000      6.000    41.2537    34.5807   -26.6229    -0.0975     1.9545     1.0050    -3.9990    20.6267    41.2566     1.2240    14.6405    14.6385     0.0020   295.0000     4.2155     4.184
     47     0.5299     0.5300     0.5300      5.473     16.000  22200.000      6.000    41.2537    34.4508   -26.8808    -0.0975     1.9545     1.0050    -3.9990    20.6267    41.2566     1.2356    14.6405    14.6385     0.0020   295.0000     4.2180     4.184
     48     0.5349     0.5350     0.5350      5.581     12.000  22200.000      6.000    41.2537    34.3248   -27.1387    -0.0975     1.9545     1.0050    -3.9990    20.6267    41.2566     1.2472    14.6405    14.6385     0.0020   295.0000     4.2180     4.184
     49     0.5399     0.5400     0.5400      5.534     24.000  22200.000      6.000    41.2537    34.1939   -27.3975    -0.0975     1.9545     1.0050    -3.9990    20.6267    41.2566     1.2589    14.6405    14.6385     0.0020   295.0000     4.2206     4.185
     50     0.5450     0.5451     0.5450      5.529     10.000  22200.000      6.000    41.2537    34.0650   -27.6574    -0.0975     1.9545     1.0050    -3.9990    20.6267    41.2566     1.2706    14.6405    14.6385     0.0020   295.0000     4.2215     4.182
     51     0.5499     0.5500     0.5500      5.545     24.000  22200.000      6.000    41.2537    33.9360   -27.9152    -0.0975     1.9545     1.0050    -3.9990    20.6267    41.2566     1.2822    14.6405    14.6385     0.0020   295.0000     4.2194     4.185
     52     0.5550     0.5551     0.5550      5.573     13.000  22200.000      6.000    41.2537    33.8071   -28.1751    -0.0975     1.9545     1.0050    -3.9990    20.6267    41.2566     1.2939    14.6405    14.6385     0.0020   295.0000     4.2194     4.185
     53     0.5599     0.5600     0.5600      5.599     14.000  22200.000      6.000    41.2537    33.6772   -28.4320    -0.0975     1.9545     1.0050    -3.9990    20.6267    41.2566     1.3055    14.6405    14.6385     0.0020   295.0000     4.2218     4.186
     54     0.5650     0.5651     0.5650      5.582     12.000  22200.000      6.000    41.2537    33.5472   -28.6938    -0.0975     1.9545     1.0050    -3.9990    20.6267    41.2566     1.3173    14.6405    14.6385     0.0020   295.0000     4.2211     4.183
     55     0.5699     0.5700     0.5700      5.542     19.000  22200.000      6.000    41.2537    33.4183   -28.9517    -0.0975     1.9545     1.0050    -3.9990    20.6267    41.2566     1.3288    14.6405    14.6385     0.0020   295.0000     4.2205     4.186
     56     0.5750     0.5751     0.5750      5.566     15.000  22200.000      6.000    41.2537    33.2894   -29.2125    -0.0975     1.9545     1.0050    -3.9990    20.6267    41.2566     1.3406    14.6405    14.6385     0.0020   295.0000     4.2207     4.200
     57     0.5799     0.5800     0.5800      5.590     12.000  22200.000      6.000    41.2537    33.1575   -29.4713    -0.0975     1.9545     1.0050    -3.9990    20.6267    41.2566     1.3522    14.6405    14.6385     0.0020   295.0000     4.2207     4.200
     58     0.5850     0.5851     0.5850      5.518     10.000  22200.000      6.000    41.2537    33.0285   -29.7332    -0.0975     1.9545     1.0050    -3.9990    20.6267    41.2566     1.3639    14.6405    14.6385     0.0020   295.0000     4.2245     4.160
     59     0.5899     0.5900     0.5900      5.610     17.000  22200.000      6.000    41.2537    32.8996   -29.9900    -0.0975     1.9545     1.0050    -3.9990    20.6267    41.2566     1.3754    14.6405    14.6385     0.0020   295.0000     4.2194     4.183
     60     0.5949     0.5951     0.5950      5.525     14.000  22200.000      6.000    41.2537    32.7687   -30.2519    -0.0975     1.9545     1.0050    -3.9990    20.6267    41.2566     1.3872    14.6405    14.6385     0.0020   295.0000     4.2191     4.184
     61     0.5999     0.6001     0.6000      5.614     11.000  22200.000      6.000    41.2537    32.6378   -30.5127    -0.0975     1.9545     1.0050    -3.9990    20.6267    41.2566     1.3988    14.6405    14.6385     0.0020   295.0000     4.2191     4.184
     62     0.6050     0.6051     0.6050      5.556     13.000  22200.000      6.000    41.2537    32.5069   -30.7745    -0.0975     1.9545     1.0050    -3.9990    20.6267    41.2566     1.4106    14.6405    14.6385     0.0020   295.0000     4.2177     4.184
     63     0.6100     0.6101     0.6100      5.598     16.000  22200.000      6.000    41.2537    32.3780   -31.0343    -0.0975     1.9545     1.0050    -3.9990    20.6267    41.2566     1.4222    14.6405    14.6385     0.0020   295.0000     4.2186     4.184
     64     0.6150     0.6151     0.6150      5.551     10.000  22200.000      6.000    41.2537    32.2480   -31.2971    -0.0975     1.9545     1.0050    -3.9990    20.6267    41.2566     1.4339    14.6405    14.6385     0.0020   295.0000     4.2187     4.183
     65     0.6199     0.6200     0.6200      5.543     18.000  22200.000      6.000    41.2537    32.1161   -31.5550    -0.0975     1.9545     1.0050    -3.9990    20.6267    41.2566     1.4454    14.6405    14.6385     0.0020   295.0000     4.2202     4.191
     66     0.6250     0.6251     0.6250      5.564     10.000  22200.000      6.000    41.2537    31.9872   -31.8168    -0.0975     1.9545     1.0050    -3.9990    20.6267    41.2566     1.4571    14.6405    14.6385     0.0020   295.0000     4.2202     4.191
     67     0.6299     0.6301     0.6300      5.614     13.000  22200.000      6.000    41.2537    31.8543   -32.0786    -0.0975     1.9545     1.0050    -3.9990    20.6267    41.2566     1.4688    14.6405    14.6385     0.0020   295.0000     4.2201     4.183
     68     0.6349     0.6350     0.6350      5.538     10.000  22200.000      6.000    41.2537    31.7264   -32.3385    -0.0975     1.9545     1.0050    -3.9990    20.6267    41.2566     1.4804    14.6405    14.6385     0.0020   295.0000     4.2216     4.182
     69     0.6399     0.6400     0.6400      5.634     23.000  22200.000      6.000    41.2537    31.5925   -32.5993    -0.0975     1.9545     1.0050    -3.9990    20.6267    41.2566     1.4920    14.6405    14.6385     0.0020   295.0000     4.2203     4.192
     70     0.6449     0.6451     0.6450      5.584      8.000  22200.000      6.000    41.2537    31.4636   -32.8631    -0.0975     1.9545     1.0050    -3.9990    20.6267    41.2566     1.5037    14.6405    14.6385     0.0020   295.0000     4.2203     4.192
     71     0.6499     0.6501     0.6500      5.562     12.000  22200.000      6.000    41.2537    31.3317   -33.1259    -0.0975     1.9545     1.0050    -3.9990    20.6267    41.2566     1.5154    14.6405    14.6385     0.0020   295.0000     4.2266     4.188
