# scan = 89
# date = 11/9/2003
# time = 3:11:25 PM
# experiment = TbPtIn single crystal;  100 plane
# experiment_number = 41
# command = scan h .45 .55 .0025 k .45 .55 .0025 l 1.45 1.55 .0025 preset mcu 10
# builtin_command = scan h .45 .55 .0025 k .45 .55 .0025 l 1.45 1.55 .0025 preset mcu 10
# users = O.Garlea, C.Stassis, J.L.Zarestky
# local_contact = J.L.Zarestky
# scan_title = h,h,h+1 order parameter UP T = 34.0000
# monochromator = PG002
# analyzer = Pg002
# sense = +-+
# collimation = 48-40-40-102
# samplename = TbPtIn
# sampletype = crystal
# samplemosaic = 30.000000
# latticeconstants = 7.554017,7.554017,3.847681,90.000000,90.000000,120.000000
# ubmatrix = -0.008230,-0.004834,0.259516,-0.134256,-0.130074,-0.012979,0.072618,-0.080146,0.005414
# mode = 0
# plane_normal = -0.022217,-0.027363,0.999379
# ubconf = C:\User\exp41\UBConf\UB08Nov2003_100555PM.ini
# preset_type = normal 
# preset_channel = mcu
# preset_value = 10.000000
# def_x = h
# def_y = detector
# col_headers = 
#   Pt.          h          k          l       time   detector    monitor        mcu         m2         s1         s2        sgl        sgu        stl        stu         a1         a2          q         ei         ef          e       temp    coldtip    tsample
      1     0.4500     0.4500     1.4500      9.399      3.000  37000.000     10.000    41.2537    -7.4793   -55.6987     1.2730    -1.5670    -0.0020    -0.0010    20.6267    41.2556     2.4834    14.6405    14.6392     0.0013    34.0000    34.0490    43.522
      2     0.4525     0.4524     1.4525      9.417      2.000  37000.000     10.000    41.2537    -7.4793   -55.8217     1.2730    -1.5670    -0.0020    -0.0010    20.6267    41.2556     2.4884    14.6405    14.6392     0.0013    34.0000    33.9840    40.808
      3     0.4550     0.4549     1.4550      9.331      2.000  37000.000     10.000    41.2537    -7.4793   -55.9487     1.2730    -1.5670    -0.0020    -0.0010    20.6267    41.2556     2.4936    14.6405    14.6392     0.0013    34.0000    34.0010    41.865
      4     0.4575     0.4575     1.4575      9.338      3.000  37000.000     10.000    41.2537    -7.4793   -56.0747     1.2730    -1.5670    -0.0020    -0.0010    20.6267    41.2556     2.4988    14.6405    14.6392     0.0013    34.0000    33.9850    40.882
      5     0.4600     0.4600     1.4600      9.350      1.000  37000.000     10.000    41.2537    -7.4793   -56.2007     1.2730    -1.5670    -0.0020    -0.0010    20.6267    41.2556     2.5040    14.6405    14.6392     0.0013    34.0000    33.9770    40.782
      6     0.4625     0.4625     1.4625      9.383      5.000  37000.000     10.000    41.2537    -7.4793   -56.3267     1.2730    -1.5670    -0.0020    -0.0010    20.6267    41.2556     2.5091    14.6405    14.6392     0.0013    34.0000    33.9850    40.963
      7     0.4651     0.4650     1.4650      9.418      0.000  37000.000     10.000    41.2537    -7.4793   -56.4517     1.2730    -1.5670    -0.0020    -0.0010    20.6267    41.2556     2.5142    14.6405    14.6392     0.0013    34.0000    33.9870    40.609
      8     0.4676     0.4676     1.4675      9.390      2.000  37000.000     10.000    41.2537    -7.4793   -56.5786     1.2730    -1.5670    -0.0020    -0.0010    20.6267    41.2556     2.5194    14.6405    14.6392     0.0013    34.0000    33.9980    41.107
      9     0.4702     0.4702     1.4700      9.326      1.000  37000.000     10.000    41.2537    -7.4793   -56.7066     1.2730    -1.5670    -0.0020    -0.0010    20.6267    41.2556     2.5246    14.6405    14.6392     0.0013    34.0000    33.9830    39.140
     10     0.4725     0.4725     1.4725      9.357      4.000  37000.000     10.000    41.2537    -7.4872   -56.8316     1.2730    -1.5670    -0.0020    -0.0010    20.6267    41.2556     2.5297    14.6405    14.6392     0.0013    34.0000    33.9660    36.801
     11     0.4751     0.4750     1.4749      9.448      1.000  37000.000     10.000    41.2537    -7.4872   -56.9576     1.2730    -1.5670    -0.0020    -0.0010    20.6267    41.2556     2.5349    14.6405    14.6392     0.0013    34.0000    33.9850    36.641
     12     0.4777     0.4777     1.4775      9.459      4.000  37000.000     10.000    41.2537    -7.4872   -57.0875     1.2730    -1.5670    -0.0020    -0.0010    20.6267    41.2556     2.5402    14.6405    14.6392     0.0013    34.0000    33.9980    36.870
     13     0.4800     0.4800     1.4800      9.351      8.000  37000.000     10.000    41.2537    -7.4970   -57.2135     1.2730    -1.5670    -0.0020    -0.0010    20.6267    41.2556     2.5453    14.6405    14.6392     0.0013    34.0000    34.0120    36.564
     14     0.4826     0.4826     1.4825      9.330     10.000  37000.000     10.000    41.2537    -7.4970   -57.3414     1.2730    -1.5670    -0.0020    -0.0010    20.6267    41.2556     2.5505    14.6405    14.6392     0.0013    34.0000    34.0390    38.041
     15     0.4852     0.4851     1.4849      9.360     45.000  37000.000     10.000    41.2537    -7.4980   -57.4674     1.2730    -1.5670    -0.0020    -0.0010    20.6267    41.2556     2.5556    14.6405    14.6392     0.0013    34.0000    34.0330    39.211
     16     0.4875     0.4875     1.4875      9.397     81.000  37000.000     10.000    41.2537    -7.5089   -57.5963     1.2730    -1.5670    -0.0020    -0.0010    20.6267    41.2556     2.5609    14.6405    14.6392     0.0013    34.0000    34.0200    39.390
     17     0.4901     0.4901     1.4900      9.338    222.000  37000.000     10.000    41.2537    -7.5089   -57.7233     1.2730    -1.5670    -0.0020    -0.0010    20.6267    41.2556     2.5660    14.6405    14.6392     0.0013    34.0000    33.9990    40.191
     18     0.4925     0.4925     1.4925      9.461    552.000  37000.000     10.000    41.2537    -7.5187   -57.8513     1.2730    -1.5670    -0.0020    -0.0010    20.6267    41.2556     2.5712    14.6405    14.6392     0.0013    34.0000    33.9820    39.629
     19     0.4951     0.4951     1.4949      9.376   1196.000  37000.000     10.000    41.2537    -7.5187   -57.9772     1.2730    -1.5670    -0.0020    -0.0010    20.6267    41.2556     2.5764    14.6405    14.6392     0.0013    34.0000    33.9890    40.872
     20     0.4975     0.4975     1.4975      9.428   1698.000  37000.000     10.000    41.2537    -7.5295   -58.1082     1.2730    -1.5670    -0.0020    -0.0010    20.6267    41.2556     2.5817    14.6405    14.6392     0.0013    34.0000    33.9820    41.458
     21     0.5002     0.5002     1.5000      9.257   1637.000  37000.000     10.000    41.2537    -7.5295   -58.2371     1.2730    -1.5670    -0.0020    -0.0010    20.6267    41.2556     2.5869    14.6405    14.6392     0.0013    34.0000    33.9660    39.858
     22     0.5025     0.5025     1.5025      9.331   1382.000  37000.000     10.000    41.2537    -7.5404   -58.3641     1.2730    -1.5670    -0.0020    -0.0010    20.6267    41.2556     2.5920    14.6405    14.6392     0.0013    34.0000    34.0050    41.903
     23     0.5052     0.5051     1.5049      9.397   1170.000  37000.000     10.000    41.2537    -7.5413   -58.4920     1.2730    -1.5670    -0.0020    -0.0010    20.6267    41.2556     2.5972    14.6405    14.6392     0.0013    34.0000    34.0050    41.400
     24     0.5075     0.5075     1.5075      9.385    586.000  37000.000     10.000    41.2537    -7.5541   -58.6219     1.2730    -1.5670    -0.0020    -0.0010    20.6267    41.2556     2.6025    14.6405    14.6392     0.0013    34.0000    34.0030    40.890
     25     0.5100     0.5100     1.5100      9.351    243.000  37000.000     10.000    41.2537    -7.5620   -58.7509     1.2730    -1.5670    -0.0020    -0.0010    20.6267    41.2556     2.6077    14.6405    14.6392     0.0013    34.0000    34.0100    39.495
     26     0.5127     0.5127     1.5124      9.327     75.000  37000.000     10.000    41.2537    -7.5620   -58.8788     1.2730    -1.5670    -0.0020    -0.0010    20.6267    41.2556     2.6129    14.6405    14.6392     0.0013    34.0000    34.0200    40.964
     27     0.5150     0.5150     1.5150      9.311     30.000  37000.000     10.000    41.2537    -7.5768   -59.0087     1.2730    -1.5670    -0.0020    -0.0010    20.6267    41.2556     2.6181    14.6405    14.6392     0.0013    34.0000    34.0190    40.758
     28     0.5175     0.5175     1.5175      9.427     11.000  37000.000     10.000    41.2537    -7.5846   -59.1377     1.2730    -1.5670    -0.0020    -0.0010    20.6267    41.2556     2.6233    14.6405    14.6392     0.0013    34.0000    34.0160    40.368
     29     0.5200     0.5200     1.5200      9.325      3.000  37000.000     10.000    41.2537    -7.5935   -59.2676     1.2730    -1.5670    -0.0020    -0.0010    20.6267    41.2556     2.6286    14.6405    14.6392     0.0013    34.0000    34.0240    42.229
     30     0.5225     0.5225     1.5225      9.384      2.000  37000.000     10.000    41.2537    -7.6014   -59.3965     1.2730    -1.5670    -0.0020    -0.0010    20.6267    41.2556     2.6337    14.6405    14.6392     0.0013    34.0000    33.9880    40.470
     31     0.5250     0.5250     1.5250      9.391      1.000  37000.000     10.000    41.2537    -7.6102   -59.5265     1.2730    -1.5670    -0.0020    -0.0010    20.6267    41.2556     2.6390    14.6405    14.6392     0.0013    34.0000    33.9760    41.169
     32     0.5276     0.5275     1.5275      9.308      0.000  37000.000     10.000    41.2537    -7.6191   -59.6583     1.2730    -1.5670    -0.0020    -0.0010    20.6267    41.2556     2.6443    14.6405    14.6392     0.0013    34.0000    33.9860    41.738
     33     0.5300     0.5300     1.5300      9.406      2.000  37000.000     10.000    41.2537    -7.6289   -59.7873     1.2730    -1.5670    -0.0020    -0.0010    20.6267    41.2556     2.6495    14.6405    14.6392     0.0013    34.0000    33.9790    41.515
     34     0.5325     0.5325     1.5325      9.390      2.000  37000.000     10.000    41.2537    -7.6388   -59.9162     1.2730    -1.5670    -0.0020    -0.0010    20.6267    41.2556     2.6547    14.6405    14.6392     0.0013    34.0000    33.9660    39.378
     35     0.5350     0.5350     1.5350      9.369      2.000  37000.000     10.000    41.2537    -7.6486   -60.0461     1.2730    -1.5670    -0.0020    -0.0010    20.6267    41.2556     2.6599    14.6405    14.6392     0.0013    34.0000    33.9900    40.019
     36     0.5376     0.5375     1.5375      9.339      0.000  37000.000     10.000    41.2537    -7.6585   -60.1780     1.2730    -1.5670    -0.0020    -0.0010    20.6267    41.2556     2.6652    14.6405    14.6392     0.0013    34.0000    34.0060    41.461
     37     0.5401     0.5400     1.5400      9.350      3.000  37000.000     10.000    41.2537    -7.6703   -60.3099     1.2730    -1.5670    -0.0020    -0.0010    20.6267    41.2556     2.6705    14.6405    14.6392     0.0013    34.0000    33.9980    41.067
     38     0.5425     0.5425     1.5425      9.380      3.000  37000.000     10.000    41.2537    -7.6811   -60.4389     1.2730    -1.5670    -0.0020    -0.0010    20.6267    41.2556     2.6756    14.6405    14.6392     0.0013    34.0000    34.0000    40.439
     39     0.5450     0.5450     1.5450      9.339      3.000  37000.000     10.000    41.2537    -7.6929   -60.5708     1.2730    -1.5670    -0.0020    -0.0010    20.6267    41.2556     2.6809    14.6405    14.6392     0.0013    34.0000    34.0120    41.051
     40     0.5476     0.5475     1.5475      9.379      2.000  37000.000     10.000    41.2537    -7.7028   -60.7017     1.2730    -1.5670    -0.0020    -0.0010    20.6267    41.2556     2.6862    14.6405    14.6392     0.0013    34.0000    34.0020    39.901
     41     0.5500     0.5499     1.5500      9.299      8.000  37000.000     10.000    41.2537    -7.7165   -60.8306     1.2730    -1.5670    -0.0020    -0.0010    20.6267    41.2556     2.6913    14.6405    14.6392     0.0013    34.0000    33.9930    40.112
# Sum of Counts = 9005
# Center of Mass = 0.500003+/-0.007452
# Full Width Half-Maximum = 0.012098+/-0.003379
# 3:19:12 PM  11/9/2003   scan completed.
