# scan = 17
# date = 10/22/2003
# time = 9:30:25 PM
# experiment = Alignment and Intensity Checks
# experiment_number = 41
# command = scan s2 54.400000 56.420000 0.050500
# builtin_command = scan s2 54.400000 56.420000 0.050500
# users = MY
# local_contact = MY
# scan_title = Ni Powder (2,0,0)
# monochromator = PG002
# analyzer = Pg002
# sense = -+-
# collimation = 48-40-40-120
# samplename = Sample with lattice params=2*pi
# sampletype = crystal
# samplemosaic = 30.000000
# latticeconstants = 6.280000,6.280000,6.280000,90.000000,90.000000,90.000000
# ubmatrix = -0.112597,-0.112597,0.000000,0.000000,0.000000,-0.159236,0.112597,-0.112597,0.000000
# mode = 0
# plane_normal = 0.000000,0.000000,1.000000
# ubconf = 
# preset_type = normal 
# preset_channel = time
# preset_value = 1.000000
# def_x = s2
# def_y = detector
# col_headers = 
#   Pt.         s2       time   detector    monitor        mcu         m1         m2         s1        sgl        sgu        stl        stu         a1         a2          q          h          k          l         ei         ef          e       temp    coldtip    tsample
      1    54.4016      1.000  10732.000 105400.000      0.917    51.0520   -28.2535     0.0002    -0.0055     0.0000     0.0000    -0.0010    90.0000     0.0604  1773.5631  1020.5885  1020.3926 -1029.3375    30.5008 6534326.9677 -6534296.4669     0.0000     0.0000     0.000
      2    54.4510      1.000  11689.000 105376.000      0.916    51.0520   -28.2535     0.0002    -0.0055     0.0000     0.0000    -0.0010    90.0000     0.0604  1773.5658  1021.2186  1021.0225 -1028.0918    30.5008 6534326.9677 -6534296.4669     0.0000     0.0000     0.000
      3    54.5004      1.000  12944.000 105479.000      0.917    51.0520   -28.2535     0.0002    -0.0055     0.0000     0.0000    -0.0010    90.0000     0.0604  1773.5685  1021.8479  1021.6517 -1026.8454    30.5008 6534326.9677 -6534296.4669     0.0000     0.0000     0.000
      4    54.5499      1.000  13911.000 105691.000      0.919    51.0520   -28.2535     0.0002    -0.0055     0.0000     0.0000    -0.0010    90.0000     0.0604  1773.5712  1022.4764  1022.2801 -1025.5982    30.5008 6534326.9677 -6534296.4669     0.0000     0.0000     0.000
      5    54.6048      1.000  15155.000 105910.000      0.921    51.0520   -28.2535     0.0002    -0.0055     0.0000     0.0000    -0.0010    90.0000     0.0604  1773.5742  1023.1739  1022.9775 -1024.2115    30.5008 6534326.9677 -6534296.4669     0.0000     0.0000     0.000
      6    54.6515      1.000  16311.000 105443.000      0.917    51.0520   -28.2535     0.0002    -0.0055     0.0000     0.0000    -0.0010    90.0000     0.0604  1773.5767  1023.7660  1023.5695 -1023.0321    30.5008 6534326.9677 -6534296.4669     0.0000     0.0000     0.000
      7    54.7037      1.000  17539.000 105789.000      0.920    51.0520   -28.2535     0.0002    -0.0055     0.0000     0.0000    -0.0010    90.0000     0.0604  1773.5796  1024.4270  1024.2303 -1021.7131    30.5008 6534326.9677 -6534296.4669     0.0000     0.0000     0.000
      8    54.7559      1.000  18686.000 105424.000      0.917    51.0520   -28.2535     0.0002    -0.0055     0.0000     0.0000    -0.0010    90.0000     0.0604  1773.5824  1025.0871  1024.8903 -1020.3933    30.5008 6534326.9677 -6534296.4669     0.0000     0.0000     0.000
      9    54.8026      1.000  19425.000 105536.000      0.918    51.0520   -28.2535     0.0002    -0.0055     0.0000     0.0000    -0.0010    90.0000     0.0604  1773.5850  1025.6770  1025.4801 -1019.2116    30.5008 6534326.9677 -6534296.4669     0.0000     0.0000     0.000
     10    54.8547      1.000  20474.000 105377.000      0.916    51.0520   -28.2535     0.0002    -0.0055     0.0000     0.0000    -0.0010    90.0000     0.0604  1773.5879  1026.3355  1026.1385 -1017.8902    30.5008 6534326.9677 -6534296.4669     0.0000     0.0000     0.000
     11    54.9069      1.000  21459.000 105550.000      0.918    51.0520   -28.2535     0.0002    -0.0055     0.0000     0.0000    -0.0010    90.0000     0.0604  1773.5907  1026.9932  1026.7960 -1016.5679    30.5008 6534326.9677 -6534296.4669     0.0000     0.0000     0.000
     12    54.9564      1.000  22403.000 105962.000      0.921    51.0520   -28.2535     0.0002    -0.0055     0.0000     0.0000    -0.0010    90.0000     0.0604  1773.5934  1027.6155  1027.4182 -1015.3144    30.5008 6534326.9677 -6534296.4669     0.0000     0.0000     0.000
     13    55.0058      1.000  22658.000 105402.000      0.917    51.0520   -28.2535     0.0002    -0.0055     0.0000     0.0000    -0.0010    90.0000     0.0604  1773.5961  1028.2370  1028.0396 -1014.0602    30.5008 6534326.9677 -6534296.4669     0.0000     0.0000     0.000
     14    55.0552      1.000  23471.000 104910.000      0.912    51.0520   -28.2535     0.0002    -0.0055     0.0000     0.0000    -0.0010    90.0000     0.0604  1773.5989  1028.8577  1028.6602 -1012.8052    30.5008 6534326.9677 -6534296.4669     0.0000     0.0000     0.000
     15    55.1074      1.000  24116.000 105115.000      0.914    51.0520   -28.2535     0.0002    -0.0055     0.0000     0.0000    -0.0010    90.0000     0.0604  1773.6017  1029.5121  1029.3144 -1011.4797    30.5008 6534326.9677 -6534296.4669     0.0000     0.0000     0.000
     16    55.1569      1.000  24684.000 104950.000      0.913    51.0520   -28.2535     0.0002    -0.0055     0.0000     0.0000    -0.0010    90.0000     0.0604  1773.6045  1030.1312  1029.9335 -1010.2232    30.5008 6534326.9677 -6534296.4669     0.0000     0.0000     0.000
     17    55.2090      1.000  24757.000 105183.000      0.915    51.0520   -28.2535     0.0002    -0.0055     0.0000     0.0000    -0.0010    90.0000     0.0604  1773.6073  1030.7839  1030.5861 -1008.8960    30.5008 6534326.9677 -6534296.4669     0.0000     0.0000     0.000
     18    55.2585      1.000  24835.000 105304.000      0.916    51.0520   -28.2535     0.0002    -0.0055     0.0000     0.0000    -0.0010    90.0000     0.0604  1773.6100  1031.4015  1031.2035 -1007.6379    30.5008 6534326.9677 -6534296.4669     0.0000     0.0000     0.000
     19    55.2585      0.000      0.000      0.000      0.000    51.0520   -28.2535     0.0002    -0.0055     0.0000     0.0000    -0.0010    90.0000     0.0604  1773.6100  1031.4015  1031.2035 -1007.6379    30.5008 6534326.9677 -6534296.4669     0.0000     0.0000     0.000
# Sum of Counts = 345249
# Center of Mass = 54.891965+/-0.132117
# Full Width Half-Maximum = 0.499135+/-0.061002
# 9:31:10 PM  10/22/2003   scan stopped!!
